EXPLAIN
TAG	CV
TITLE	LABEL	ECSA	Test Identifier
DATE	LABEL	20.8.2024	Date
TIME	LABEL	8:39:07	Time
NOTES	NOTES	1	Notes...
	
PSTAT	PSTAT	IFC1010-36105	Potentiostat
VINIT	POTEN	-2.00000E-001	F	A Potential (V)
VLIMIT1	POTEN	0.00000E+000	F	A Potential (V)
VLIMIT2	POTEN	-2.00000E-001	F	A Potential (V)
VFINAL	POTEN	-2.00000E-001	F	A Potential (V)
SCANRATE	QUANT	6.99999E+001	A Real Number
STEPSIZE	QUANT	1.00000E+000	Step Size (mV)
CYCLES	IQUANT	3	Cycles (#)
IMODE	SELECTOR	1	I/E Range Mode
IRANGE	QUANT	3.00000E-001	Max Current (mA)
AREA	QUANT	1.00000E+000	Sample Area (cm^2)
EQDELAY	QUANT	0.00000E+000	Equil. Time (s)
IRCOMP	SELECTOR	0	IRComp
PFCOR	QUANT	5.00000E+001	PF Corr. (ohm)
SAMPLINGMODE	SELECTOR	2	Sampling Mode
EOC	QUANT	-0.1790659	Open Circuit (V)
ELECTRODETYPE	SELECTOR	0	Electrode Type
STRIPPING	TOGGLE	F	Used for Stripping
SEQUENCER	TOGGLE	TRUE	Run as Sequence
PSTATMODEL	IQUANT	64	Pstat Model
PSTATSECTION	LABEL	IFC1010-36105	Pstat Section
PSTATSERIALNO	LABEL	36105	Pstat Serial Number
CTRLMODE	IQUANT	1	Control Mode
ELECTROMETER	IQUANT	0	RE=0 or CS=1
IESTAB	IQUANT	2	I/E Stability
CASPEED	IQUANT	4	Control Amp Speed
CONVENTION	IQUANT	1	Current Convention
ICHRANGE	IQUANT	2	Ich Range
ICHRANGEMODE	TOGGLE	F	Ich Auto Range
ICHOFFSETENABLE	TOGGLE	F	Ich Offset Enable
ICHOFFSET	QUANT	0	Ich Offset (V)
ICHFILTER	IQUANT	3	Ich Filter
VCHRANGE	IQUANT	1	Vch Range
VCHRANGEMODE	TOGGLE	F	Vch Auto Range
VCHOFFSETENABLE	TOGGLE	F	Vch Offset Enable
VCHOFFSET	QUANT	0	Vch Offset (V)
VCHFILTER	IQUANT	3	Vch Filter
IERANGELOWERLIMIT	IQUANT	4	I/E Range Lower Limit
IERANGEMODE	TOGGLE	F	I/E AutoRange
IERANGE	IQUANT	9	I/E Range
ACHSELECT	IQUANT	0	Ach Select
ACHRANGE	IQUANT	2	Ach Range
ACHOFFSETENABLE	TOGGLE	F	Ach Offset Enable
ACHOFFSET	QUANT	0	Ach Offset (V)
ACHFILTER	IQUANT	1	Ach Filter
SENSECABLEID	IQUANT	13	Sense Cable ID
PWRCABLEID	IQUANT	13	Power Cable ID
DCCALDATE	LABEL	10/17/2023	DC Calibration Date
ACCALDATE	LABEL	6/2/2023	AC Calibration Date
FRAMEWORKVERSION	LABEL	7.10.3	Framework Version
INSTRUMENTVERSION	LABEL	4.91	Instrument Version
COMMVERSION	LABEL	3.10	Communications Version
CPUPLDVERSION	LABEL	2.22	CPU PLD Version
CTRLPLDVERSION	LABEL	0.00	CTRL PLD Version
PSTATPLDVERSION	LABEL	0.00	PSTAT PLD Version
CURVE1	TABLE
	Pt	T	Vf	Im	Vu	Sig	Ach	IERange	Over	Temp
	#	s	V vs. Ref.	A	V	V	V	#	bits	deg C
	0	0.014283	-2.00079E-001	-3.47103E-007	0.00000E+000	-1.99996E-001	0.00000E+000	9	...........	1488.69
	1	0.028567	-1.99095E-001	1.65174E-006	0.00000E+000	-1.98996E-001	0.00000E+000	9	...........	1488.69
	2	0.04285	-1.98093E-001	1.76293E-006	0.00000E+000	-1.97996E-001	0.00000E+000	9	...........	1488.69
	3	0.057133	-1.97093E-001	1.83956E-006	0.00000E+000	-1.96996E-001	0.00000E+000	9	...........	1488.69
	4	0.071417	-1.96094E-001	1.89153E-006	0.00000E+000	-1.95995E-001	0.00000E+000	9	...........	1488.69
	5	0.0857	-1.95092E-001	1.93476E-006	0.00000E+000	-1.94995E-001	0.00000E+000	9	...........	1488.69
	6	0.099983	-1.94092E-001	1.98021E-006	0.00000E+000	-1.93995E-001	0.00000E+000	9	...........	1488.69
	7	0.114267	-1.93104E-001	1.97514E-006	0.00000E+000	-1.93007E-001	0.00000E+000	9	...........	1488.69
	8	0.12855	-1.92102E-001	2.03163E-006	0.00000E+000	-1.92007E-001	0.00000E+000	9	...........	1488.69
	9	0.142833	-1.91102E-001	2.06327E-006	0.00000E+000	-1.91006E-001	0.00000E+000	9	...........	1488.69
	10	0.157117	-1.90101E-001	2.08434E-006	0.00000E+000	-1.90006E-001	0.00000E+000	9	...........	1488.69
	11	0.1714	-1.89102E-001	2.08781E-006	0.00000E+000	-1.89006E-001	0.00000E+000	9	...........	1488.69
	12	0.185683	-1.88103E-001	2.11345E-006	0.00000E+000	-1.88006E-001	0.00000E+000	9	...........	1488.69
	13	0.199967	-1.87100E-001	2.14185E-006	0.00000E+000	-1.87005E-001	0.00000E+000	9	...........	1488.69
	14	0.21425	-1.86100E-001	2.14856E-006	0.00000E+000	-1.86005E-001	0.00000E+000	9	...........	1488.69
	15	0.228533	-1.85100E-001	2.16526E-006	0.00000E+000	-1.85005E-001	0.00000E+000	9	...........	1488.69
	16	0.242817	-1.84097E-001	2.18383E-006	0.00000E+000	-1.84005E-001	0.00000E+000	9	...........	1488.69
	17	0.2571	-1.83101E-001	2.18797E-006	0.00000E+000	-1.83004E-001	0.00000E+000	9	...........	1488.69
	18	0.271383	-1.82099E-001	2.20182E-006	0.00000E+000	-1.82004E-001	0.00000E+000	9	...........	1488.69
	19	0.285667	-1.81101E-001	2.21399E-006	0.00000E+000	-1.81004E-001	0.00000E+000	9	...........	1488.69
	20	0.29995	-1.80099E-001	2.22608E-006	0.00000E+000	-1.80004E-001	0.00000E+000	9	...........	1488.69
	21	0.314233	-1.79098E-001	2.22597E-006	0.00000E+000	-1.79003E-001	0.00000E+000	9	...........	1488.69
	22	0.328517	-1.78098E-001	2.24645E-006	0.00000E+000	-1.78003E-001	0.00000E+000	9	...........	1488.69
	23	0.3428	-1.77096E-001	2.24637E-006	0.00000E+000	-1.77003E-001	0.00000E+000	9	...........	1488.69
	24	0.357083	-1.76098E-001	2.25784E-006	0.00000E+000	-1.76002E-001	0.00000E+000	9	...........	1488.69
	25	0.371367	-1.75097E-001	2.26810E-006	0.00000E+000	-1.75002E-001	0.00000E+000	9	...........	1488.69
	26	0.38565	-1.74096E-001	2.27084E-006	0.00000E+000	-1.74002E-001	0.00000E+000	9	...........	1488.69
	27	0.399933	-1.73095E-001	2.28859E-006	0.00000E+000	-1.73002E-001	0.00000E+000	9	...........	1488.69
	28	0.414217	-1.72094E-001	2.28176E-006	0.00000E+000	-1.72001E-001	0.00000E+000	9	...........	1488.69
	29	0.4285	-1.71094E-001	2.29577E-006	0.00000E+000	-1.71001E-001	0.00000E+000	9	...........	1488.69
	30	0.442783	-1.70093E-001	2.29865E-006	0.00000E+000	-1.70001E-001	0.00000E+000	9	...........	1488.69
	31	0.457067	-1.69093E-001	2.30217E-006	0.00000E+000	-1.69001E-001	0.00000E+000	9	...........	1488.69
	32	0.47135	-1.68093E-001	2.29709E-006	0.00000E+000	-1.68000E-001	0.00000E+000	9	...........	1488.69
	33	0.485633	-1.67093E-001	2.31313E-006	0.00000E+000	-1.67000E-001	0.00000E+000	9	...........	1488.69
	34	0.499917	-1.66092E-001	2.32616E-006	0.00000E+000	-1.66000E-001	0.00000E+000	9	...........	1488.69
	35	0.5142	-1.65105E-001	2.30474E-006	0.00000E+000	-1.65012E-001	0.00000E+000	9	...........	1488.69
	36	0.528483	-1.64104E-001	2.32269E-006	0.00000E+000	-1.64012E-001	0.00000E+000	9	...........	1488.69
	37	0.542767	-1.63105E-001	2.33845E-006	0.00000E+000	-1.63012E-001	0.00000E+000	9	...........	1488.69
	38	0.55705	-1.62105E-001	2.33030E-006	0.00000E+000	-1.62011E-001	0.00000E+000	9	...........	1488.69
	39	0.571333	-1.61103E-001	2.34056E-006	0.00000E+000	-1.61011E-001	0.00000E+000	9	...........	1488.69
	40	0.585617	-1.60102E-001	2.34278E-006	0.00000E+000	-1.60011E-001	0.00000E+000	9	...........	1488.69
	41	0.5999	-1.59100E-001	2.34317E-006	0.00000E+000	-1.59010E-001	0.00000E+000	9	...........	1488.69
	42	0.614183	-1.58100E-001	2.34590E-006	0.00000E+000	-1.58010E-001	0.00000E+000	9	...........	1488.69
	43	0.628467	-1.57103E-001	2.34145E-006	0.00000E+000	-1.57010E-001	0.00000E+000	9	...........	1488.69
	44	0.64275	-1.56102E-001	2.35183E-006	0.00000E+000	-1.56010E-001	0.00000E+000	9	...........	1488.69
	45	0.657033	-1.55102E-001	2.34805E-006	0.00000E+000	-1.55009E-001	0.00000E+000	9	...........	1488.69
	46	0.671317	-1.54100E-001	2.34887E-006	0.00000E+000	-1.54009E-001	0.00000E+000	9	...........	1488.69
	47	0.6856	-1.53101E-001	2.35168E-006	0.00000E+000	-1.53009E-001	0.00000E+000	9	...........	1488.69
	48	0.699883	-1.52099E-001	2.36307E-006	0.00000E+000	-1.52009E-001	0.00000E+000	9	...........	1488.69
	49	0.714167	-1.51100E-001	2.35257E-006	0.00000E+000	-1.51008E-001	0.00000E+000	9	...........	1488.69
	50	0.72845	-1.50103E-001	2.35757E-006	0.00000E+000	-1.50008E-001	0.00000E+000	9	...........	1488.69
	51	0.742733	-1.49100E-001	2.36529E-006	0.00000E+000	-1.49008E-001	0.00000E+000	9	...........	1488.69
	52	0.757017	-1.48101E-001	2.35726E-006	0.00000E+000	-1.48008E-001	0.00000E+000	9	...........	1488.69
	53	0.7713	-1.47101E-001	2.37040E-006	0.00000E+000	-1.47007E-001	0.00000E+000	9	...........	1488.69
	54	0.785583	-1.46099E-001	2.36467E-006	0.00000E+000	-1.46007E-001	0.00000E+000	9	...........	1488.69
	55	0.799867	-1.45099E-001	2.38000E-006	0.00000E+000	-1.45007E-001	0.00000E+000	9	...........	1488.69
	56	0.81415	-1.44096E-001	2.36518E-006	0.00000E+000	-1.44006E-001	0.00000E+000	9	...........	1488.69
	57	0.828433	-1.43099E-001	2.36993E-006	0.00000E+000	-1.43006E-001	0.00000E+000	9	...........	1488.69
	58	0.842717	-1.42098E-001	2.37399E-006	0.00000E+000	-1.42006E-001	0.00000E+000	9	...........	1488.69
	59	0.857	-1.41097E-001	2.37333E-006	0.00000E+000	-1.41006E-001	0.00000E+000	9	...........	1488.69
	60	0.871283	-1.40098E-001	2.37146E-006	0.00000E+000	-1.40005E-001	0.00000E+000	9	...........	1488.69
	61	0.885567	-1.39097E-001	2.37224E-006	0.00000E+000	-1.39005E-001	0.00000E+000	9	...........	1488.69
	62	0.89985	-1.38096E-001	2.37196E-006	0.00000E+000	-1.38005E-001	0.00000E+000	9	...........	1488.69
	63	0.914133	-1.37097E-001	2.37399E-006	0.00000E+000	-1.37005E-001	0.00000E+000	9	...........	1488.69
	64	0.928417	-1.36107E-001	2.35909E-006	0.00000E+000	-1.36017E-001	0.00000E+000	9	...........	1488.69
	65	0.9427	-1.35108E-001	2.37875E-006	0.00000E+000	-1.35017E-001	0.00000E+000	9	...........	1488.69
	66	0.95698	-1.34108E-001	2.37739E-006	0.00000E+000	-1.34016E-001	0.00000E+000	9	...........	1488.69
	67	0.97127	-1.33106E-001	2.37965E-006	0.00000E+000	-1.33016E-001	0.00000E+000	9	...........	1488.69
	68	0.98555	-1.32107E-001	2.37864E-006	0.00000E+000	-1.32016E-001	0.00000E+000	9	...........	1488.69
	69	0.99983	-1.31106E-001	2.38796E-006	0.00000E+000	-1.31015E-001	0.00000E+000	9	...........	1488.69
	70	1.01412	-1.30105E-001	2.39881E-006	0.00000E+000	-1.30015E-001	0.00000E+000	9	...........	1488.69
	71	1.0284	-1.29108E-001	2.38718E-006	0.00000E+000	-1.29015E-001	0.00000E+000	9	...........	1488.69
	72	1.04268	-1.28105E-001	2.39354E-006	0.00000E+000	-1.28015E-001	0.00000E+000	9	...........	1488.69
	73	1.05697	-1.27103E-001	2.38808E-006	0.00000E+000	-1.27014E-001	0.00000E+000	9	...........	1488.69
	74	1.07125	-1.26104E-001	2.38453E-006	0.00000E+000	-1.26014E-001	0.00000E+000	9	...........	1488.69
	75	1.08553	-1.25103E-001	2.38999E-006	0.00000E+000	-1.25014E-001	0.00000E+000	9	...........	1488.69
	76	1.09982	-1.24103E-001	2.39272E-006	0.00000E+000	-1.24014E-001	0.00000E+000	9	...........	1488.69
	77	1.1141	-1.23102E-001	2.39315E-006	0.00000E+000	-1.23013E-001	0.00000E+000	9	...........	1488.69
	78	1.12838	-1.22104E-001	2.38831E-006	0.00000E+000	-1.22013E-001	0.00000E+000	9	...........	1488.69
	79	1.14267	-1.21103E-001	2.39342E-006	0.00000E+000	-1.21013E-001	0.00000E+000	9	...........	1488.69
	80	1.15695	-1.20101E-001	2.39490E-006	0.00000E+000	-1.20013E-001	0.00000E+000	9	...........	1488.69
	81	1.17123	-1.19102E-001	2.38702E-006	0.00000E+000	-1.19012E-001	0.00000E+000	9	...........	1488.69
	82	1.18552	-1.18100E-001	2.39951E-006	0.00000E+000	-1.18012E-001	0.00000E+000	9	...........	1488.69
	83	1.1998	-1.17101E-001	2.40029E-006	0.00000E+000	-1.17012E-001	0.00000E+000	9	...........	1488.69
	84	1.21408	-1.16100E-001	2.39846E-006	0.00000E+000	-1.16011E-001	0.00000E+000	9	...........	1488.69
	85	1.22837	-1.15098E-001	2.39580E-006	0.00000E+000	-1.15011E-001	0.00000E+000	9	...........	1488.69
	86	1.24265	-1.14096E-001	2.40353E-006	0.00000E+000	-1.14011E-001	0.00000E+000	9	...........	1488.69
	87	1.25693	-1.13095E-001	2.39791E-006	0.00000E+000	-1.13011E-001	0.00000E+000	9	...........	1488.69
	88	1.27122	-1.12097E-001	2.40294E-006	0.00000E+000	-1.12010E-001	0.00000E+000	9	...........	1488.69
	89	1.2855	-1.11095E-001	2.40918E-006	0.00000E+000	-1.11010E-001	0.00000E+000	9	...........	1488.69
	90	1.29978	-1.10096E-001	2.40255E-006	0.00000E+000	-1.10010E-001	0.00000E+000	9	...........	1488.69
	91	1.31407	-1.09095E-001	2.41656E-006	0.00000E+000	-1.09010E-001	0.00000E+000	9	...........	1488.69
	92	1.32835	-1.08094E-001	2.40716E-006	0.00000E+000	-1.08009E-001	0.00000E+000	9	...........	1488.69
	93	1.34263	-1.07105E-001	2.39545E-006	0.00000E+000	-1.07022E-001	0.00000E+000	9	...........	1488.69
	94	1.35692	-1.06108E-001	2.40641E-006	0.00000E+000	-1.06021E-001	0.00000E+000	9	...........	1488.69
	95	1.3712	-1.05108E-001	2.41484E-006	0.00000E+000	-1.05021E-001	0.00000E+000	9	...........	1488.69
	96	1.38548	-1.04107E-001	2.41363E-006	0.00000E+000	-1.04021E-001	0.00000E+000	9	...........	1488.69
	97	1.39977	-1.03107E-001	2.41972E-006	0.00000E+000	-1.03020E-001	0.00000E+000	9	...........	1488.69
	98	1.41405	-1.02106E-001	2.41909E-006	0.00000E+000	-1.02020E-001	0.00000E+000	9	...........	1488.69
	99	1.42833	-1.01103E-001	2.41508E-006	0.00000E+000	-1.01020E-001	0.00000E+000	9	...........	1488.69
	100	1.44262	-1.00102E-001	2.41964E-006	0.00000E+000	-1.00020E-001	0.00000E+000	9	...........	1488.69
	101	1.4569	-9.91066E-002	2.41028E-006	0.00000E+000	-9.90194E-002	0.00000E+000	9	...........	1488.69
	102	1.47118	-9.81080E-002	2.42046E-006	0.00000E+000	-9.80191E-002	0.00000E+000	9	...........	1488.69
	103	1.48547	-9.71066E-002	2.42280E-006	0.00000E+000	-9.70189E-002	0.00000E+000	9	...........	1488.69
	104	1.49975	-9.61041E-002	2.41859E-006	0.00000E+000	-9.60186E-002	0.00000E+000	9	...........	1488.69
	105	1.51403	-9.51037E-002	2.41075E-006	0.00000E+000	-9.50183E-002	0.00000E+000	9	...........	1488.69
	106	1.52832	-9.41028E-002	2.41472E-006	0.00000E+000	-9.40181E-002	0.00000E+000	9	...........	1488.69
	107	1.5426	-9.31031E-002	2.41984E-006	0.00000E+000	-9.30178E-002	0.00000E+000	9	...........	1488.69
	108	1.55688	-9.21017E-002	2.42639E-006	0.00000E+000	-9.20175E-002	0.00000E+000	9	...........	1488.69
	109	1.57117	-9.11022E-002	2.43084E-006	0.00000E+000	-9.10173E-002	0.00000E+000	9	...........	1488.69
	110	1.58545	-9.01016E-002	2.42600E-006	0.00000E+000	-9.00170E-002	0.00000E+000	9	...........	1488.69
	111	1.59973	-8.91016E-002	2.43447E-006	0.00000E+000	-8.90167E-002	0.00000E+000	9	...........	1488.69
	112	1.61402	-8.81004E-002	2.43864E-006	0.00000E+000	-8.80165E-002	0.00000E+000	9	...........	1488.69
	113	1.6283	-8.70993E-002	2.42912E-006	0.00000E+000	-8.70162E-002	0.00000E+000	9	...........	1488.69
	114	1.64258	-8.60983E-002	2.44305E-006	0.00000E+000	-8.60159E-002	0.00000E+000	9	...........	1488.69
	115	1.65687	-8.50996E-002	2.43482E-006	0.00000E+000	-8.50157E-002	0.00000E+000	9	...........	1488.69
	116	1.67115	-8.40983E-002	2.43825E-006	0.00000E+000	-8.40154E-002	0.00000E+000	9	...........	1488.69
	117	1.68543	-8.30960E-002	2.45035E-006	0.00000E+000	-8.30151E-002	0.00000E+000	9	...........	1488.69
	118	1.69972	-8.20969E-002	2.44356E-006	0.00000E+000	-8.20149E-002	0.00000E+000	9	...........	1488.69
	119	1.714	-8.10991E-002	2.44239E-006	0.00000E+000	-8.10146E-002	0.00000E+000	9	...........	1488.69
	120	1.72828	-8.01000E-002	2.43911E-006	0.00000E+000	-8.00143E-002	0.00000E+000	9	...........	1488.69
	121	1.74257	-7.91112E-002	2.43404E-006	0.00000E+000	-7.90266E-002	0.00000E+000	9	...........	1488.69
	122	1.75685	-7.81108E-002	2.44984E-006	0.00000E+000	-7.80263E-002	0.00000E+000	9	...........	1488.69
	123	1.77113	-7.71077E-002	2.44808E-006	0.00000E+000	-7.70260E-002	0.00000E+000	9	...........	1488.69
	124	1.78542	-7.61103E-002	2.45152E-006	0.00000E+000	-7.60258E-002	0.00000E+000	9	...........	1488.69
	125	1.7997	-7.51085E-002	2.45862E-006	0.00000E+000	-7.50255E-002	0.00000E+000	9	...........	1488.69
	126	1.81398	-7.41094E-002	2.44504E-006	0.00000E+000	-7.40252E-002	0.00000E+000	9	...........	1488.69
	127	1.82827	-7.31075E-002	2.45717E-006	0.00000E+000	-7.30250E-002	0.00000E+000	9	...........	1488.69
	128	1.84255	-7.21070E-002	2.45495E-006	0.00000E+000	-7.20247E-002	0.00000E+000	9	...........	1488.69
	129	1.85683	-7.11084E-002	2.46334E-006	0.00000E+000	-7.10244E-002	0.00000E+000	9	...........	1488.69
	130	1.87112	-7.01073E-002	2.46490E-006	0.00000E+000	-7.00242E-002	0.00000E+000	9	...........	1488.69
	131	1.8854	-6.91035E-002	2.47059E-006	0.00000E+000	-6.90239E-002	0.00000E+000	9	...........	1488.69
	132	1.89968	-6.81021E-002	2.46841E-006	0.00000E+000	-6.80236E-002	0.00000E+000	9	...........	1488.69
	133	1.91397	-6.71066E-002	2.47106E-006	0.00000E+000	-6.70234E-002	0.00000E+000	9	...........	1488.69
	134	1.92825	-6.61052E-002	2.47668E-006	0.00000E+000	-6.60231E-002	0.00000E+000	9	...........	1488.69
	135	1.94253	-6.51039E-002	2.47063E-006	0.00000E+000	-6.50228E-002	0.00000E+000	9	...........	1488.69
	136	1.95682	-6.41019E-002	2.48807E-006	0.00000E+000	-6.40226E-002	0.00000E+000	9	...........	1488.69
	137	1.9711	-6.31015E-002	2.48031E-006	0.00000E+000	-6.30223E-002	0.00000E+000	9	...........	1488.69
	138	1.98538	-6.21011E-002	2.48296E-006	0.00000E+000	-6.20220E-002	0.00000E+000	9	...........	1488.69
	139	1.99967	-6.11005E-002	2.48125E-006	0.00000E+000	-6.10218E-002	0.00000E+000	9	...........	1488.69
	140	2.01395	-6.01008E-002	2.49272E-006	0.00000E+000	-6.00215E-002	0.00000E+000	9	...........	1488.69
	141	2.02823	-5.90981E-002	2.48792E-006	0.00000E+000	-5.90212E-002	0.00000E+000	9	...........	1488.69
	142	2.04252	-5.81002E-002	2.49365E-006	0.00000E+000	-5.80210E-002	0.00000E+000	9	...........	1488.69
	143	2.0568	-5.70992E-002	2.50875E-006	0.00000E+000	-5.70207E-002	0.00000E+000	9	...........	1488.69
	144	2.07108	-5.60969E-002	2.49861E-006	0.00000E+000	-5.60204E-002	0.00000E+000	9	...........	1488.69
	145	2.08537	-5.50975E-002	2.49912E-006	0.00000E+000	-5.50201E-002	0.00000E+000	9	...........	1488.69
	146	2.09965	-5.40980E-002	2.50906E-006	0.00000E+000	-5.40199E-002	0.00000E+000	9	...........	1488.69
	147	2.11393	-5.30962E-002	2.50637E-006	0.00000E+000	-5.30196E-002	0.00000E+000	9	...........	1488.69
	148	2.12822	-5.20968E-002	2.50360E-006	0.00000E+000	-5.20194E-002	0.00000E+000	9	...........	1488.69
	149	2.1425	-5.10952E-002	2.51230E-006	0.00000E+000	-5.10191E-002	0.00000E+000	9	...........	1488.69
	150	2.15678	-5.01057E-002	2.51320E-006	0.00000E+000	-5.00313E-002	0.00000E+000	9	...........	1488.69
	151	2.17107	-4.91032E-002	2.52042E-006	0.00000E+000	-4.90310E-002	0.00000E+000	9	...........	1488.69
	152	2.18535	-4.81062E-002	2.51554E-006	0.00000E+000	-4.80308E-002	0.00000E+000	9	...........	1488.69
	153	2.19963	-4.71077E-002	2.53325E-006	0.00000E+000	-4.70305E-002	0.00000E+000	9	...........	1488.69
	154	2.21392	-4.61055E-002	2.53240E-006	0.00000E+000	-4.60302E-002	0.00000E+000	9	...........	1488.69
	155	2.2282	-4.51057E-002	2.53985E-006	0.00000E+000	-4.50300E-002	0.00000E+000	9	...........	1488.69
	156	2.24248	-4.41049E-002	2.54757E-006	0.00000E+000	-4.40297E-002	0.00000E+000	9	...........	1488.69
	157	2.25677	-4.31025E-002	2.55245E-006	0.00000E+000	-4.30294E-002	0.00000E+000	9	...........	1488.69
	158	2.27105	-4.21020E-002	2.54761E-006	0.00000E+000	-4.20292E-002	0.00000E+000	9	...........	1488.69
	159	2.28533	-4.11013E-002	2.56216E-006	0.00000E+000	-4.10289E-002	0.00000E+000	9	...........	1488.69
	160	2.29962	-4.01029E-002	2.55319E-006	0.00000E+000	-4.00286E-002	0.00000E+000	9	...........	1488.69
	161	2.3139	-3.91020E-002	2.56404E-006	0.00000E+000	-3.90284E-002	0.00000E+000	9	...........	1488.69
	162	2.32818	-3.81000E-002	2.56595E-006	0.00000E+000	-3.80281E-002	0.00000E+000	9	...........	1488.69
	163	2.34247	-3.70989E-002	2.55877E-006	0.00000E+000	-3.70278E-002	0.00000E+000	9	...........	1488.69
	164	2.35675	-3.60954E-002	2.58741E-006	0.00000E+000	-3.60276E-002	0.00000E+000	9	...........	1488.69
	165	2.37103	-3.51002E-002	2.56930E-006	0.00000E+000	-3.50273E-002	0.00000E+000	9	...........	1488.69
	166	2.38532	-3.40988E-002	2.58070E-006	0.00000E+000	-3.40270E-002	0.00000E+000	9	...........	1488.69
	167	2.3996	-3.30980E-002	2.58862E-006	0.00000E+000	-3.30268E-002	0.00000E+000	9	...........	1488.69
	168	2.41388	-3.20955E-002	2.59224E-006	0.00000E+000	-3.20265E-002	0.00000E+000	9	...........	1488.69
	169	2.42817	-3.10948E-002	2.60188E-006	0.00000E+000	-3.10262E-002	0.00000E+000	9	...........	1488.69
	170	2.44245	-3.00940E-002	2.59416E-006	0.00000E+000	-3.00260E-002	0.00000E+000	9	...........	1488.69
	171	2.45673	-2.90938E-002	2.60598E-006	0.00000E+000	-2.90257E-002	0.00000E+000	9	...........	1488.69
	172	2.47102	-2.80924E-002	2.60048E-006	0.00000E+000	-2.80254E-002	0.00000E+000	9	...........	1488.69
	173	2.4853	-2.70920E-002	2.60547E-006	0.00000E+000	-2.70252E-002	0.00000E+000	9	...........	1488.69
	174	2.49958	-2.60943E-002	2.61920E-006	0.00000E+000	-2.60249E-002	0.00000E+000	9	...........	1488.69
	175	2.51387	-2.50906E-002	2.62026E-006	0.00000E+000	-2.50246E-002	0.00000E+000	9	...........	1488.69
	176	2.52815	-2.40900E-002	2.62611E-006	0.00000E+000	-2.40244E-002	0.00000E+000	9	...........	1488.69
	177	2.54243	-2.30910E-002	2.63005E-006	0.00000E+000	-2.30241E-002	0.00000E+000	9	...........	1488.69
	178	2.55672	-2.20915E-002	2.63719E-006	0.00000E+000	-2.20238E-002	0.00000E+000	9	...........	1488.69
	179	2.571	-2.11027E-002	2.61222E-006	0.00000E+000	-2.10361E-002	0.00000E+000	9	...........	1488.69
	180	2.58528	-2.01021E-002	2.64613E-006	0.00000E+000	-2.00358E-002	0.00000E+000	9	...........	1488.69
	181	2.59957	-1.91000E-002	2.64503E-006	0.00000E+000	-1.90355E-002	0.00000E+000	9	...........	1488.69
	182	2.61385	-1.80973E-002	2.64991E-006	0.00000E+000	-1.80353E-002	0.00000E+000	9	...........	1488.69
	183	2.62813	-1.70993E-002	2.66360E-006	0.00000E+000	-1.70350E-002	0.00000E+000	9	...........	1488.69
	184	2.64242	-1.61002E-002	2.66080E-006	0.00000E+000	-1.60347E-002	0.00000E+000	9	...........	1488.69
	185	2.6567	-1.51002E-002	2.68093E-006	0.00000E+000	-1.50345E-002	0.00000E+000	9	...........	1488.69
	186	2.67098	-1.40983E-002	2.67757E-006	0.00000E+000	-1.40342E-002	0.00000E+000	9	...........	1488.69
	187	2.68527	-1.30979E-002	2.68452E-006	0.00000E+000	-1.30339E-002	0.00000E+000	9	...........	1488.69
	188	2.69955	-1.20986E-002	2.69700E-006	0.00000E+000	-1.20337E-002	0.00000E+000	9	...........	1488.69
	189	2.71383	-1.10948E-002	2.70695E-006	0.00000E+000	-1.10334E-002	0.00000E+000	9	...........	1488.69
	190	2.72812	-1.00945E-002	2.71011E-006	0.00000E+000	-1.00331E-002	0.00000E+000	9	...........	1488.69
	191	2.7424	-9.09455E-003	2.71378E-006	0.00000E+000	-9.03286E-003	0.00000E+000	9	...........	1488.69
	192	2.75668	-8.09493E-003	2.72556E-006	0.00000E+000	-8.03259E-003	0.00000E+000	9	...........	1488.69
	193	2.77097	-7.09472E-003	2.73231E-006	0.00000E+000	-7.03233E-003	0.00000E+000	9	...........	1488.69
	194	2.78525	-6.09287E-003	2.73056E-006	0.00000E+000	-6.03206E-003	0.00000E+000	9	...........	1488.69
	195	2.79953	-5.08939E-003	2.74347E-006	0.00000E+000	-5.03179E-003	0.00000E+000	9	...........	1488.69
	196	2.81382	-4.09059E-003	2.74476E-006	0.00000E+000	-4.03152E-003	0.00000E+000	9	...........	1488.69
	197	2.8281	-3.09132E-003	2.75260E-006	0.00000E+000	-3.03125E-003	0.00000E+000	9	...........	1488.69
	198	2.84238	-2.09149E-003	2.75463E-006	0.00000E+000	-2.03099E-003	0.00000E+000	9	...........	1488.69
	199	2.85667	-1.09048E-003	2.76313E-006	0.00000E+000	-1.03072E-003	0.00000E+000	9	...........	1488.69
	200	2.87095	-8.80082E-005	2.77277E-006	0.00000E+000	-3.04505E-005	0.00000E+000	9	...........	1488.69
	201	2.88523	-1.05824E-003	-2.97397E-007	0.00000E+000	-1.03072E-003	0.00000E+000	9	...........	1488.69
	202	2.89952	-2.06059E-003	-4.36761E-007	0.00000E+000	-2.03099E-003	0.00000E+000	9	...........	1488.71
	203	2.9138	-3.06013E-003	-5.18927E-007	0.00000E+000	-3.03125E-003	0.00000E+000	9	...........	1488.78
	204	2.92808	-4.05990E-003	-5.77919E-007	0.00000E+000	-4.03152E-003	0.00000E+000	9	...........	1488.78
	205	2.94237	-5.05944E-003	-6.20953E-007	0.00000E+000	-5.03179E-003	0.00000E+000	9	...........	1488.78
	206	2.95665	-6.06372E-003	-6.48849E-007	0.00000E+000	-6.03206E-003	0.00000E+000	9	...........	1488.78
	207	2.97093	-7.06368E-003	-6.83299E-007	0.00000E+000	-7.03233E-003	0.00000E+000	9	...........	1488.78
	208	2.98522	-8.06481E-003	-7.23329E-007	0.00000E+000	-8.03259E-003	0.00000E+000	9	...........	1488.78
	209	2.9995	-9.06420E-003	-7.42330E-007	0.00000E+000	-9.03286E-003	0.00000E+000	9	...........	1488.78
	210	3.01378	-1.00638E-002	-7.63359E-007	0.00000E+000	-1.00331E-002	0.00000E+000	9	...........	1488.78
	211	3.02807	-1.10631E-002	-7.88758E-007	0.00000E+000	-1.10334E-002	0.00000E+000	9	...........	1488.78
	212	3.04235	-1.20662E-002	-8.06354E-007	0.00000E+000	-1.20337E-002	0.00000E+000	9	...........	1488.78
	213	3.05663	-1.30665E-002	-8.16030E-007	0.00000E+000	-1.30339E-002	0.00000E+000	9	...........	1488.78
	214	3.07092	-1.40688E-002	-8.34913E-007	0.00000E+000	-1.40342E-002	0.00000E+000	9	...........	1488.78
	215	3.0852	-1.50677E-002	-8.51573E-007	0.00000E+000	-1.50345E-002	0.00000E+000	9	...........	1488.78
	216	3.09948	-1.60696E-002	-8.59961E-007	0.00000E+000	-1.60347E-002	0.00000E+000	9	...........	1488.78
	217	3.11377	-1.70693E-002	-8.73071E-007	0.00000E+000	-1.70350E-002	0.00000E+000	9	...........	1488.78
	218	3.12805	-1.80693E-002	-8.89262E-007	0.00000E+000	-1.80353E-002	0.00000E+000	9	...........	1488.78
	219	3.14233	-1.90723E-002	-9.04088E-007	0.00000E+000	-1.90355E-002	0.00000E+000	9	...........	1488.78
	220	3.15662	-2.00731E-002	-9.19304E-007	0.00000E+000	-2.00358E-002	0.00000E+000	9	...........	1488.78
	221	3.1709	-2.10742E-002	-9.29682E-007	0.00000E+000	-2.10361E-002	0.00000E+000	9	...........	1488.78
	222	3.18518	-2.20631E-002	-9.25820E-007	0.00000E+000	-2.20238E-002	0.00000E+000	9	...........	1488.78
	223	3.19947	-2.30609E-002	-9.51180E-007	0.00000E+000	-2.30241E-002	0.00000E+000	9	...........	1488.78
	224	3.21375	-2.40602E-002	-9.68073E-007	0.00000E+000	-2.40244E-002	0.00000E+000	9	...........	1488.78
	225	3.22803	-2.50626E-002	-9.80753E-007	0.00000E+000	-2.50246E-002	0.00000E+000	9	...........	1488.78
	226	3.24232	-2.60645E-002	-9.89493E-007	0.00000E+000	-2.60249E-002	0.00000E+000	9	...........	1488.78
	227	3.2566	-2.70649E-002	-9.91873E-007	0.00000E+000	-2.70252E-002	0.00000E+000	9	...........	1488.78
	228	3.27088	-2.80642E-002	-1.00830E-006	0.00000E+000	-2.80254E-002	0.00000E+000	9	...........	1488.78
	229	3.28517	-2.90664E-002	-1.02753E-006	0.00000E+000	-2.90257E-002	0.00000E+000	9	...........	1488.78
	230	3.29945	-3.00645E-002	-1.02191E-006	0.00000E+000	-3.00260E-002	0.00000E+000	9	...........	1488.78
	231	3.31373	-3.10647E-002	-1.03292E-006	0.00000E+000	-3.10262E-002	0.00000E+000	9	...........	1488.78
	232	3.32802	-3.20658E-002	-1.04794E-006	0.00000E+000	-3.20265E-002	0.00000E+000	9	...........	1488.78
	233	3.3423	-3.30679E-002	-1.05395E-006	0.00000E+000	-3.30268E-002	0.00000E+000	9	...........	1488.78
	234	3.35658	-3.40685E-002	-1.05812E-006	0.00000E+000	-3.40270E-002	0.00000E+000	9	...........	1488.78
	235	3.37087	-3.50691E-002	-1.06803E-006	0.00000E+000	-3.50273E-002	0.00000E+000	9	...........	1488.78
	236	3.38515	-3.60682E-002	-1.07845E-006	0.00000E+000	-3.60276E-002	0.00000E+000	9	...........	1488.78
	237	3.39943	-3.70700E-002	-1.08282E-006	0.00000E+000	-3.70278E-002	0.00000E+000	9	...........	1488.78
	238	3.41372	-3.80707E-002	-1.09889E-006	0.00000E+000	-3.80281E-002	0.00000E+000	9	...........	1488.78
	239	3.428	-3.90744E-002	-1.10439E-006	0.00000E+000	-3.90284E-002	0.00000E+000	9	...........	1488.78
	240	3.44228	-4.00736E-002	-1.10935E-006	0.00000E+000	-4.00286E-002	0.00000E+000	9	...........	1488.78
	241	3.45657	-4.10731E-002	-1.10759E-006	0.00000E+000	-4.10289E-002	0.00000E+000	9	...........	1488.78
	242	3.47085	-4.20738E-002	-1.11727E-006	0.00000E+000	-4.20292E-002	0.00000E+000	9	...........	1488.78
	243	3.48513	-4.30737E-002	-1.12726E-006	0.00000E+000	-4.30294E-002	0.00000E+000	9	...........	1488.78
	244	3.49942	-4.40753E-002	-1.13494E-006	0.00000E+000	-4.40297E-002	0.00000E+000	9	...........	1488.78
	245	3.5137	-4.50777E-002	-1.13713E-006	0.00000E+000	-4.50300E-002	0.00000E+000	9	...........	1488.78
	246	3.52798	-4.60776E-002	-1.14868E-006	0.00000E+000	-4.60302E-002	0.00000E+000	9	...........	1488.78
	247	3.54227	-4.70791E-002	-1.15468E-006	0.00000E+000	-4.70305E-002	0.00000E+000	9	...........	1488.78
	248	3.55655	-4.80787E-002	-1.15742E-006	0.00000E+000	-4.80308E-002	0.00000E+000	9	...........	1488.78
	249	3.57083	-4.90762E-002	-1.16846E-006	0.00000E+000	-4.90310E-002	0.00000E+000	9	...........	1488.78
	250	3.58512	-5.00760E-002	-1.18242E-006	0.00000E+000	-5.00313E-002	0.00000E+000	9	...........	1488.78
	251	3.5994	-5.10657E-002	-1.16030E-006	0.00000E+000	-5.10191E-002	0.00000E+000	9	...........	1488.78
	252	3.61368	-5.20674E-002	-1.19682E-006	0.00000E+000	-5.20194E-002	0.00000E+000	9	...........	1488.78
	253	3.62797	-5.30677E-002	-1.19745E-006	0.00000E+000	-5.30196E-002	0.00000E+000	9	...........	1488.78
	254	3.64225	-5.40686E-002	-1.20775E-006	0.00000E+000	-5.40199E-002	0.00000E+000	9	...........	1488.78
	255	3.65653	-5.50674E-002	-1.20673E-006	0.00000E+000	-5.50201E-002	0.00000E+000	9	...........	1488.78
	256	3.67082	-5.60661E-002	-1.22113E-006	0.00000E+000	-5.60204E-002	0.00000E+000	9	...........	1488.78
	257	3.6851	-5.70699E-002	-1.23244E-006	0.00000E+000	-5.70207E-002	0.00000E+000	9	...........	1488.78
	258	3.69938	-5.80696E-002	-1.23814E-006	0.00000E+000	-5.80210E-002	0.00000E+000	9	...........	1488.78
	259	3.71367	-5.90698E-002	-1.23853E-006	0.00000E+000	-5.90212E-002	0.00000E+000	9	...........	1488.78
	260	3.72795	-6.00697E-002	-1.25437E-006	0.00000E+000	-6.00215E-002	0.00000E+000	9	...........	1488.78
	261	3.74223	-6.10710E-002	-1.24801E-006	0.00000E+000	-6.10218E-002	0.00000E+000	9	...........	1488.78
	262	3.75652	-6.20724E-002	-1.26307E-006	0.00000E+000	-6.20220E-002	0.00000E+000	9	...........	1488.78
	263	3.7708	-6.30724E-002	-1.27072E-006	0.00000E+000	-6.30223E-002	0.00000E+000	9	...........	1488.78
	264	3.78508	-6.40728E-002	-1.27758E-006	0.00000E+000	-6.40226E-002	0.00000E+000	9	...........	1488.78
	265	3.79937	-6.50748E-002	-1.27544E-006	0.00000E+000	-6.50228E-002	0.00000E+000	9	...........	1488.78
	266	3.81365	-6.60767E-002	-1.28172E-006	0.00000E+000	-6.60231E-002	0.00000E+000	9	...........	1488.78
	267	3.82793	-6.70777E-002	-1.29151E-006	0.00000E+000	-6.70234E-002	0.00000E+000	9	...........	1488.78
	268	3.84222	-6.80748E-002	-1.29338E-006	0.00000E+000	-6.80236E-002	0.00000E+000	9	...........	1488.78
	269	3.8565	-6.90752E-002	-1.31320E-006	0.00000E+000	-6.90239E-002	0.00000E+000	9	...........	1488.78
	270	3.87078	-7.00790E-002	-1.30844E-006	0.00000E+000	-7.00242E-002	0.00000E+000	9	...........	1488.78
	271	3.88507	-7.10778E-002	-1.31699E-006	0.00000E+000	-7.10244E-002	0.00000E+000	9	...........	1488.78
	272	3.89935	-7.20792E-002	-1.32936E-006	0.00000E+000	-7.20247E-002	0.00000E+000	9	...........	1488.83
	273	3.91363	-7.30786E-002	-1.31734E-006	0.00000E+000	-7.30250E-002	0.00000E+000	9	...........	1488.97
	274	3.92792	-7.40788E-002	-1.33611E-006	0.00000E+000	-7.40252E-002	0.00000E+000	9	...........	1488.97
	275	3.9422	-7.50796E-002	-1.33521E-006	0.00000E+000	-7.50255E-002	0.00000E+000	9	...........	1488.97
	276	3.95648	-7.60790E-002	-1.34024E-006	0.00000E+000	-7.60258E-002	0.00000E+000	9	...........	1488.97
	277	3.97077	-7.70796E-002	-1.34976E-006	0.00000E+000	-7.70260E-002	0.00000E+000	9	...........	1488.97
	278	3.98505	-7.80805E-002	-1.35823E-006	0.00000E+000	-7.80263E-002	0.00000E+000	9	...........	1488.97
	279	3.99933	-7.90810E-002	-1.36985E-006	0.00000E+000	-7.90266E-002	0.00000E+000	9	...........	1488.97
	280	4.01362	-8.00707E-002	-1.33494E-006	0.00000E+000	-8.00143E-002	0.00000E+000	9	...........	1488.97
	281	4.0279	-8.10695E-002	-1.36552E-006	0.00000E+000	-8.10146E-002	0.00000E+000	9	...........	1488.97
	282	4.04218	-8.20686E-002	-1.38027E-006	0.00000E+000	-8.20149E-002	0.00000E+000	9	...........	1488.97
	283	4.05647	-8.30691E-002	-1.38347E-006	0.00000E+000	-8.30151E-002	0.00000E+000	9	...........	1488.97
	284	4.07075	-8.40689E-002	-1.38889E-006	0.00000E+000	-8.40154E-002	0.00000E+000	9	...........	1488.97
	285	4.08503	-8.50701E-002	-1.39557E-006	0.00000E+000	-8.50157E-002	0.00000E+000	9	...........	1488.97
	286	4.09932	-8.60694E-002	-1.40352E-006	0.00000E+000	-8.60159E-002	0.00000E+000	9	...........	1488.97
	287	4.1136	-8.70692E-002	-1.40251E-006	0.00000E+000	-8.70162E-002	0.00000E+000	9	...........	1488.97
	288	4.12788	-8.80704E-002	-1.41488E-006	0.00000E+000	-8.80165E-002	0.00000E+000	9	...........	1488.97
	289	4.14217	-8.90704E-002	-1.42050E-006	0.00000E+000	-8.90167E-002	0.00000E+000	9	...........	1488.97
	290	4.15645	-9.00709E-002	-1.42678E-006	0.00000E+000	-9.00170E-002	0.00000E+000	9	...........	1488.97
	291	4.17073	-9.10723E-002	-1.43267E-006	0.00000E+000	-9.10173E-002	0.00000E+000	9	...........	1488.97
	292	4.18502	-9.20718E-002	-1.44422E-006	0.00000E+000	-9.20175E-002	0.00000E+000	9	...........	1488.97
	293	4.1993	-9.30734E-002	-1.44465E-006	0.00000E+000	-9.30178E-002	0.00000E+000	9	...........	1488.97
	294	4.21358	-9.40718E-002	-1.44656E-006	0.00000E+000	-9.40181E-002	0.00000E+000	9	...........	1488.97
	295	4.22787	-9.50727E-002	-1.45986E-006	0.00000E+000	-9.50183E-002	0.00000E+000	9	...........	1488.97
	296	4.24215	-9.60759E-002	-1.46802E-006	0.00000E+000	-9.60186E-002	0.00000E+000	9	...........	1488.97
	297	4.25643	-9.70755E-002	-1.46474E-006	0.00000E+000	-9.70189E-002	0.00000E+000	9	...........	1488.97
	298	4.27072	-9.80769E-002	-1.46802E-006	0.00000E+000	-9.80191E-002	0.00000E+000	9	...........	1488.97
	299	4.285	-9.90773E-002	-1.48234E-006	0.00000E+000	-9.90194E-002	0.00000E+000	9	...........	1488.97
	300	4.29928	-1.00074E-001	-1.48202E-006	0.00000E+000	-1.00020E-001	0.00000E+000	9	...........	1488.97
	301	4.31357	-1.01076E-001	-1.49467E-006	0.00000E+000	-1.01020E-001	0.00000E+000	9	...........	1488.97
	302	4.32785	-1.02076E-001	-1.50793E-006	0.00000E+000	-1.02020E-001	0.00000E+000	9	...........	1488.97
	303	4.34213	-1.03080E-001	-1.50969E-006	0.00000E+000	-1.03020E-001	0.00000E+000	9	...........	1488.97
	304	4.35642	-1.04080E-001	-1.51148E-006	0.00000E+000	-1.04021E-001	0.00000E+000	9	...........	1488.97
	305	4.3707	-1.05079E-001	-1.52026E-006	0.00000E+000	-1.05021E-001	0.00000E+000	9	...........	1488.97
	306	4.38498	-1.06078E-001	-1.53072E-006	0.00000E+000	-1.06021E-001	0.00000E+000	9	...........	1488.97
	307	4.39927	-1.07077E-001	-1.53501E-006	0.00000E+000	-1.07022E-001	0.00000E+000	9	...........	1488.97
	308	4.41355	-1.08065E-001	-1.51117E-006	0.00000E+000	-1.08009E-001	0.00000E+000	9	...........	1488.97
	309	4.42783	-1.09067E-001	-1.55135E-006	0.00000E+000	-1.09010E-001	0.00000E+000	9	...........	1488.97
	310	4.44212	-1.10067E-001	-1.55050E-006	0.00000E+000	-1.10010E-001	0.00000E+000	9	...........	1488.97
	311	4.4564	-1.11066E-001	-1.55846E-006	0.00000E+000	-1.11010E-001	0.00000E+000	9	...........	1488.97
	312	4.47068	-1.12070E-001	-1.56037E-006	0.00000E+000	-1.12010E-001	0.00000E+000	9	...........	1488.97
	313	4.48497	-1.13067E-001	-1.57176E-006	0.00000E+000	-1.13011E-001	0.00000E+000	9	...........	1488.97
	314	4.49925	-1.14067E-001	-1.56926E-006	0.00000E+000	-1.14011E-001	0.00000E+000	9	...........	1488.97
	315	4.51353	-1.15070E-001	-1.57902E-006	0.00000E+000	-1.15011E-001	0.00000E+000	9	...........	1488.97
	316	4.52782	-1.16070E-001	-1.58432E-006	0.00000E+000	-1.16011E-001	0.00000E+000	9	...........	1488.97
	317	4.5421	-1.17070E-001	-1.59271E-006	0.00000E+000	-1.17012E-001	0.00000E+000	9	...........	1488.97
	318	4.55638	-1.18069E-001	-1.59653E-006	0.00000E+000	-1.18012E-001	0.00000E+000	9	...........	1488.97
	319	4.57067	-1.19069E-001	-1.60465E-006	0.00000E+000	-1.19012E-001	0.00000E+000	9	...........	1488.97
	320	4.58495	-1.20069E-001	-1.61475E-006	0.00000E+000	-1.20013E-001	0.00000E+000	9	...........	1488.97
	321	4.59923	-1.21071E-001	-1.61472E-006	0.00000E+000	-1.21013E-001	0.00000E+000	9	...........	1488.97
	322	4.61352	-1.22071E-001	-1.62587E-006	0.00000E+000	-1.22013E-001	0.00000E+000	9	...........	1488.97
	323	4.6278	-1.23070E-001	-1.62658E-006	0.00000E+000	-1.23013E-001	0.00000E+000	9	...........	1488.97
	324	4.64208	-1.24073E-001	-1.64249E-006	0.00000E+000	-1.24014E-001	0.00000E+000	9	...........	1488.97
	325	4.65637	-1.25070E-001	-1.64917E-006	0.00000E+000	-1.25014E-001	0.00000E+000	9	...........	1488.97
	326	4.67065	-1.26071E-001	-1.65857E-006	0.00000E+000	-1.26014E-001	0.00000E+000	9	...........	1488.97
	327	4.68493	-1.27071E-001	-1.66427E-006	0.00000E+000	-1.27014E-001	0.00000E+000	9	...........	1488.97
	328	4.69922	-1.28073E-001	-1.67769E-006	0.00000E+000	-1.28015E-001	0.00000E+000	9	...........	1488.97
	329	4.7135	-1.29075E-001	-1.68124E-006	0.00000E+000	-1.29015E-001	0.00000E+000	9	...........	1488.97
	330	4.72778	-1.30073E-001	-1.68401E-006	0.00000E+000	-1.30015E-001	0.00000E+000	9	...........	1488.97
	331	4.74207	-1.31075E-001	-1.70437E-006	0.00000E+000	-1.31015E-001	0.00000E+000	9	...........	1488.97
	332	4.75635	-1.32074E-001	-1.69540E-006	0.00000E+000	-1.32016E-001	0.00000E+000	9	...........	1488.97
	333	4.77063	-1.33073E-001	-1.70394E-006	0.00000E+000	-1.33016E-001	0.00000E+000	9	...........	1488.97
	334	4.78492	-1.34074E-001	-1.71424E-006	0.00000E+000	-1.34016E-001	0.00000E+000	9	...........	1488.97
	335	4.7992	-1.35075E-001	-1.72716E-006	0.00000E+000	-1.35017E-001	0.00000E+000	9	...........	1488.97
	336	4.81348	-1.36075E-001	-1.73278E-006	0.00000E+000	-1.36017E-001	0.00000E+000	9	...........	1488.97
	337	4.82777	-1.37065E-001	-1.71674E-006	0.00000E+000	-1.37005E-001	0.00000E+000	9	...........	1488.97
	338	4.84205	-1.38064E-001	-1.75061E-006	0.00000E+000	-1.38005E-001	0.00000E+000	9	...........	1488.97
	339	4.85633	-1.39066E-001	-1.74955E-006	0.00000E+000	-1.39005E-001	0.00000E+000	9	...........	1488.97
	340	4.87062	-1.40066E-001	-1.76890E-006	0.00000E+000	-1.40005E-001	0.00000E+000	9	...........	1488.97
	341	4.8849	-1.41065E-001	-1.77534E-006	0.00000E+000	-1.41006E-001	0.00000E+000	9	...........	1488.97
	342	4.89918	-1.42069E-001	-1.77597E-006	0.00000E+000	-1.42006E-001	0.00000E+000	9	...........	1488.88
	343	4.91347	-1.43068E-001	-1.78350E-006	0.00000E+000	-1.43006E-001	0.00000E+000	9	...........	1488.69
	344	4.92775	-1.44067E-001	-1.79009E-006	0.00000E+000	-1.44006E-001	0.00000E+000	9	...........	1488.69
	345	4.94203	-1.45069E-001	-1.80144E-006	0.00000E+000	-1.45007E-001	0.00000E+000	9	...........	1488.69
	346	4.95632	-1.46067E-001	-1.79863E-006	0.00000E+000	-1.46007E-001	0.00000E+000	9	...........	1488.69
	347	4.9706	-1.47069E-001	-1.81428E-006	0.00000E+000	-1.47007E-001	0.00000E+000	9	...........	1488.69
	348	4.98488	-1.48069E-001	-1.82813E-006	0.00000E+000	-1.48008E-001	0.00000E+000	9	...........	1488.69
	349	4.99917	-1.49070E-001	-1.84155E-006	0.00000E+000	-1.49008E-001	0.00000E+000	9	...........	1488.69
	350	5.01345	-1.50070E-001	-1.84128E-006	0.00000E+000	-1.50008E-001	0.00000E+000	9	...........	1488.69
	351	5.02773	-1.51071E-001	-1.84764E-006	0.00000E+000	-1.51008E-001	0.00000E+000	9	...........	1488.69
	352	5.04202	-1.52068E-001	-1.85478E-006	0.00000E+000	-1.52009E-001	0.00000E+000	9	...........	1488.69
	353	5.0563	-1.53069E-001	-1.87819E-006	0.00000E+000	-1.53009E-001	0.00000E+000	9	...........	1488.69
	354	5.07058	-1.54069E-001	-1.88154E-006	0.00000E+000	-1.54009E-001	0.00000E+000	9	...........	1488.69
	355	5.08487	-1.55071E-001	-1.88404E-006	0.00000E+000	-1.55009E-001	0.00000E+000	9	...........	1488.69
	356	5.09915	-1.56071E-001	-1.90285E-006	0.00000E+000	-1.56010E-001	0.00000E+000	9	...........	1488.69
	357	5.11343	-1.57072E-001	-1.90050E-006	0.00000E+000	-1.57010E-001	0.00000E+000	9	...........	1488.69
	358	5.12772	-1.58070E-001	-1.91533E-006	0.00000E+000	-1.58010E-001	0.00000E+000	9	...........	1488.69
	359	5.142	-1.59070E-001	-1.92980E-006	0.00000E+000	-1.59010E-001	0.00000E+000	9	...........	1488.69
	360	5.15628	-1.60071E-001	-1.94100E-006	0.00000E+000	-1.60011E-001	0.00000E+000	9	...........	1488.69
	361	5.17057	-1.61072E-001	-1.94650E-006	0.00000E+000	-1.61011E-001	0.00000E+000	9	...........	1488.69
	362	5.18485	-1.62074E-001	-1.95212E-006	0.00000E+000	-1.62011E-001	0.00000E+000	9	...........	1488.69
	363	5.19913	-1.63076E-001	-1.97237E-006	0.00000E+000	-1.63012E-001	0.00000E+000	9	...........	1488.69
	364	5.21342	-1.64075E-001	-1.96710E-006	0.00000E+000	-1.64012E-001	0.00000E+000	9	...........	1488.69
	365	5.2277	-1.65073E-001	-1.98244E-006	0.00000E+000	-1.65012E-001	0.00000E+000	9	...........	1488.69
	366	5.24198	-1.66060E-001	-1.97565E-006	0.00000E+000	-1.66000E-001	0.00000E+000	9	...........	1488.69
	367	5.25627	-1.67063E-001	-2.00050E-006	0.00000E+000	-1.67000E-001	0.00000E+000	9	...........	1488.69
	368	5.27055	-1.68063E-001	-2.02200E-006	0.00000E+000	-1.68000E-001	0.00000E+000	9	...........	1488.69
	369	5.28483	-1.69064E-001	-2.03062E-006	0.00000E+000	-1.69001E-001	0.00000E+000	9	...........	1488.69
	370	5.29912	-1.70063E-001	-2.04221E-006	0.00000E+000	-1.70001E-001	0.00000E+000	9	...........	1488.69
	371	5.3134	-1.71063E-001	-2.05130E-006	0.00000E+000	-1.71001E-001	0.00000E+000	9	...........	1488.69
	372	5.32768	-1.72065E-001	-2.05739E-006	0.00000E+000	-1.72001E-001	0.00000E+000	9	...........	1488.69
	373	5.34197	-1.73065E-001	-2.07451E-006	0.00000E+000	-1.73002E-001	0.00000E+000	9	...........	1488.69
	374	5.35625	-1.74066E-001	-2.09340E-006	0.00000E+000	-1.74002E-001	0.00000E+000	9	...........	1488.69
	375	5.37053	-1.75066E-001	-2.10370E-006	0.00000E+000	-1.75002E-001	0.00000E+000	9	...........	1488.69
	376	5.38482	-1.76069E-001	-2.11021E-006	0.00000E+000	-1.76002E-001	0.00000E+000	9	...........	1488.69
	377	5.3991	-1.77066E-001	-2.12473E-006	0.00000E+000	-1.77003E-001	0.00000E+000	9	...........	1488.69
	378	5.41338	-1.78067E-001	-2.13943E-006	0.00000E+000	-1.78003E-001	0.00000E+000	9	...........	1488.69
	379	5.42767	-1.79068E-001	-2.15430E-006	0.00000E+000	-1.79003E-001	0.00000E+000	9	...........	1488.69
	380	5.44195	-1.80069E-001	-2.17986E-006	0.00000E+000	-1.80004E-001	0.00000E+000	9	...........	1488.69
	381	5.45623	-1.81072E-001	-2.17669E-006	0.00000E+000	-1.81004E-001	0.00000E+000	9	...........	1488.69
	382	5.47052	-1.82071E-001	-2.20377E-006	0.00000E+000	-1.82004E-001	0.00000E+000	9	...........	1488.69
	383	5.4848	-1.83070E-001	-2.22195E-006	0.00000E+000	-1.83004E-001	0.00000E+000	9	...........	1488.69
	384	5.49908	-1.84068E-001	-2.22246E-006	0.00000E+000	-1.84005E-001	0.00000E+000	9	...........	1488.69
	385	5.51337	-1.85070E-001	-2.24704E-006	0.00000E+000	-1.85005E-001	0.00000E+000	9	...........	1488.69
	386	5.52765	-1.86070E-001	-2.26070E-006	0.00000E+000	-1.86005E-001	0.00000E+000	9	...........	1488.69
	387	5.54193	-1.87071E-001	-2.28703E-006	0.00000E+000	-1.87005E-001	0.00000E+000	9	...........	1488.69
	388	5.55622	-1.88072E-001	-2.29909E-006	0.00000E+000	-1.88006E-001	0.00000E+000	9	...........	1488.69
	389	5.5705	-1.89072E-001	-2.33014E-006	0.00000E+000	-1.89006E-001	0.00000E+000	9	...........	1488.69
	390	5.58478	-1.90071E-001	-2.33635E-006	0.00000E+000	-1.90006E-001	0.00000E+000	9	...........	1488.69
	391	5.59907	-1.91073E-001	-2.35379E-006	0.00000E+000	-1.91006E-001	0.00000E+000	9	...........	1488.69
	392	5.61335	-1.92072E-001	-2.38231E-006	0.00000E+000	-1.92007E-001	0.00000E+000	9	...........	1488.69
	393	5.62763	-1.93075E-001	-2.39897E-006	0.00000E+000	-1.93007E-001	0.00000E+000	9	...........	1488.69
	394	5.64192	-1.94063E-001	-2.39261E-006	0.00000E+000	-1.93995E-001	0.00000E+000	9	...........	1488.69
	395	5.6562	-1.95062E-001	-2.43525E-006	0.00000E+000	-1.94995E-001	0.00000E+000	9	...........	1488.69
	396	5.67048	-1.96064E-001	-2.46053E-006	0.00000E+000	-1.95995E-001	0.00000E+000	9	...........	1488.69
	397	5.68477	-1.97063E-001	-2.47984E-006	0.00000E+000	-1.96996E-001	0.00000E+000	9	...........	1488.69
	398	5.69905	-1.98066E-001	-2.49791E-006	0.00000E+000	-1.97996E-001	0.00000E+000	9	...........	1488.69
	399	5.71333	-1.99067E-001	-2.52819E-006	0.00000E+000	-1.98996E-001	0.00000E+000	9	...........	1488.69
	400	5.72762	-2.00066E-001	-2.55031E-006	0.00000E+000	-1.99996E-001	0.00000E+000	9	...........	1488.69
CURVE2	TABLE
	Pt	T	Vf	Im	Vu	Sig	Ach	IERange	Over	Temp
	#	s	V vs. Ref.	A	V	V	V	#	bits	deg C
	401	5.7419	-1.99098E-001	1.34457E-006	0.00000E+000	-1.98996E-001	0.00000E+000	9	...........	1488.69
	402	5.75618	-1.98095E-001	1.53606E-006	0.00000E+000	-1.97996E-001	0.00000E+000	9	...........	1488.69
	403	5.77047	-1.97095E-001	1.67300E-006	0.00000E+000	-1.96996E-001	0.00000E+000	9	...........	1488.69
	404	5.78475	-1.96096E-001	1.73827E-006	0.00000E+000	-1.95995E-001	0.00000E+000	9	...........	1488.69
	405	5.79903	-1.95094E-001	1.80499E-006	0.00000E+000	-1.94995E-001	0.00000E+000	9	...........	1488.69
	406	5.81332	-1.94093E-001	1.86585E-006	0.00000E+000	-1.93995E-001	0.00000E+000	9	...........	1488.69
	407	5.8276	-1.93106E-001	1.88700E-006	0.00000E+000	-1.93007E-001	0.00000E+000	9	...........	1488.69
	408	5.84188	-1.92104E-001	1.94490E-006	0.00000E+000	-1.92007E-001	0.00000E+000	9	...........	1488.69
	409	5.85617	-1.91104E-001	1.97561E-006	0.00000E+000	-1.91006E-001	0.00000E+000	9	...........	1488.69
	410	5.87045	-1.90100E-001	2.01283E-006	0.00000E+000	-1.90006E-001	0.00000E+000	9	...........	1488.69
	411	5.88473	-1.89101E-001	2.02582E-006	0.00000E+000	-1.89006E-001	0.00000E+000	9	...........	1488.69
	412	5.89902	-1.88103E-001	2.05492E-006	0.00000E+000	-1.88006E-001	0.00000E+000	9	...........	1488.73
	413	5.9133	-1.87101E-001	2.07170E-006	0.00000E+000	-1.87005E-001	0.00000E+000	9	...........	1488.78
	414	5.92758	-1.86100E-001	2.09332E-006	0.00000E+000	-1.86005E-001	0.00000E+000	9	...........	1488.78
	415	5.94187	-1.85101E-001	2.11130E-006	0.00000E+000	-1.85005E-001	0.00000E+000	9	...........	1488.78
	416	5.95615	-1.84100E-001	2.12757E-006	0.00000E+000	-1.84005E-001	0.00000E+000	9	...........	1488.78
	417	5.97043	-1.83100E-001	2.14993E-006	0.00000E+000	-1.83004E-001	0.00000E+000	9	...........	1488.78
	418	5.98472	-1.82098E-001	2.14630E-006	0.00000E+000	-1.82004E-001	0.00000E+000	9	...........	1488.78
	419	5.999	-1.81101E-001	2.17256E-006	0.00000E+000	-1.81004E-001	0.00000E+000	9	...........	1488.78
	420	6.01328	-1.80097E-001	2.18769E-006	0.00000E+000	-1.80004E-001	0.00000E+000	9	...........	1488.78
	421	6.02757	-1.79097E-001	2.18863E-006	0.00000E+000	-1.79003E-001	0.00000E+000	9	...........	1488.78
	422	6.04185	-1.78097E-001	2.19795E-006	0.00000E+000	-1.78003E-001	0.00000E+000	9	...........	1488.78
	423	6.05613	-1.77093E-001	2.21469E-006	0.00000E+000	-1.77003E-001	0.00000E+000	9	...........	1488.78
	424	6.07042	-1.76096E-001	2.22519E-006	0.00000E+000	-1.76002E-001	0.00000E+000	9	...........	1488.78
	425	6.0847	-1.75094E-001	2.22729E-006	0.00000E+000	-1.75002E-001	0.00000E+000	9	...........	1488.78
	426	6.09898	-1.74094E-001	2.23709E-006	0.00000E+000	-1.74002E-001	0.00000E+000	9	...........	1488.78
	427	6.11327	-1.73092E-001	2.24778E-006	0.00000E+000	-1.73002E-001	0.00000E+000	9	...........	1488.78
	428	6.12755	-1.72093E-001	2.25944E-006	0.00000E+000	-1.72001E-001	0.00000E+000	9	...........	1488.78
	429	6.14183	-1.71091E-001	2.25199E-006	0.00000E+000	-1.71001E-001	0.00000E+000	9	...........	1488.78
	430	6.15612	-1.70092E-001	2.26752E-006	0.00000E+000	-1.70001E-001	0.00000E+000	9	...........	1488.78
	431	6.1704	-1.69092E-001	2.28090E-006	0.00000E+000	-1.69001E-001	0.00000E+000	9	...........	1488.78
	432	6.18468	-1.68092E-001	2.27731E-006	0.00000E+000	-1.68000E-001	0.00000E+000	9	...........	1488.78
	433	6.19897	-1.67093E-001	2.28984E-006	0.00000E+000	-1.67000E-001	0.00000E+000	9	...........	1488.78
	434	6.21325	-1.66091E-001	2.28909E-006	0.00000E+000	-1.66000E-001	0.00000E+000	9	...........	1488.78
	435	6.22753	-1.65104E-001	2.27922E-006	0.00000E+000	-1.65012E-001	0.00000E+000	9	...........	1488.78
	436	6.24182	-1.64105E-001	2.28640E-006	0.00000E+000	-1.64012E-001	0.00000E+000	9	...........	1488.78
	437	6.2561	-1.63106E-001	2.30025E-006	0.00000E+000	-1.63012E-001	0.00000E+000	9	...........	1488.78
	438	6.27038	-1.62103E-001	2.30962E-006	0.00000E+000	-1.62011E-001	0.00000E+000	9	...........	1488.78
	439	6.28467	-1.61103E-001	2.30279E-006	0.00000E+000	-1.61011E-001	0.00000E+000	9	...........	1488.78
	440	6.29895	-1.60103E-001	2.30806E-006	0.00000E+000	-1.60011E-001	0.00000E+000	9	...........	1488.78
	441	6.31323	-1.59101E-001	2.31250E-006	0.00000E+000	-1.59010E-001	0.00000E+000	9	...........	1488.78
	442	6.32752	-1.58101E-001	2.31867E-006	0.00000E+000	-1.58010E-001	0.00000E+000	9	...........	1488.78
	443	6.3418	-1.57101E-001	2.30907E-006	0.00000E+000	-1.57010E-001	0.00000E+000	9	...........	1488.78
	444	6.35608	-1.56103E-001	2.31703E-006	0.00000E+000	-1.56010E-001	0.00000E+000	9	...........	1488.78
	445	6.37037	-1.55101E-001	2.32639E-006	0.00000E+000	-1.55009E-001	0.00000E+000	9	...........	1488.78
	446	6.38465	-1.54100E-001	2.32600E-006	0.00000E+000	-1.54009E-001	0.00000E+000	9	...........	1488.78
	447	6.39893	-1.53100E-001	2.33006E-006	0.00000E+000	-1.53009E-001	0.00000E+000	9	...........	1488.78
	448	6.41322	-1.52100E-001	2.32729E-006	0.00000E+000	-1.52009E-001	0.00000E+000	9	...........	1488.78
	449	6.4275	-1.51101E-001	2.31734E-006	0.00000E+000	-1.51008E-001	0.00000E+000	9	...........	1488.78
	450	6.44178	-1.50102E-001	2.33385E-006	0.00000E+000	-1.50008E-001	0.00000E+000	9	...........	1488.78
	451	6.45607	-1.49101E-001	2.32936E-006	0.00000E+000	-1.49008E-001	0.00000E+000	9	...........	1488.78
	452	6.47035	-1.48102E-001	2.34774E-006	0.00000E+000	-1.48008E-001	0.00000E+000	9	...........	1488.78
	453	6.48463	-1.47100E-001	2.34680E-006	0.00000E+000	-1.47007E-001	0.00000E+000	9	...........	1488.78
	454	6.49892	-1.46099E-001	2.33775E-006	0.00000E+000	-1.46007E-001	0.00000E+000	9	...........	1488.78
	455	6.5132	-1.45098E-001	2.35519E-006	0.00000E+000	-1.45007E-001	0.00000E+000	9	...........	1488.78
	456	6.52748	-1.44098E-001	2.33923E-006	0.00000E+000	-1.44006E-001	0.00000E+000	9	...........	1488.78
	457	6.54177	-1.43099E-001	2.35702E-006	0.00000E+000	-1.43006E-001	0.00000E+000	9	...........	1488.78
	458	6.55605	-1.42099E-001	2.35113E-006	0.00000E+000	-1.42006E-001	0.00000E+000	9	...........	1488.78
	459	6.57033	-1.41096E-001	2.36241E-006	0.00000E+000	-1.41006E-001	0.00000E+000	9	...........	1488.78
	460	6.58462	-1.40095E-001	2.36666E-006	0.00000E+000	-1.40005E-001	0.00000E+000	9	...........	1488.78
	461	6.5989	-1.39095E-001	2.34411E-006	0.00000E+000	-1.39005E-001	0.00000E+000	9	...........	1488.78
	462	6.61318	-1.38094E-001	2.36603E-006	0.00000E+000	-1.38005E-001	0.00000E+000	9	...........	1488.78
	463	6.62747	-1.37094E-001	2.36837E-006	0.00000E+000	-1.37005E-001	0.00000E+000	9	...........	1488.78
	464	6.64175	-1.36106E-001	2.34949E-006	0.00000E+000	-1.36017E-001	0.00000E+000	9	...........	1488.78
	465	6.65603	-1.35104E-001	2.36385E-006	0.00000E+000	-1.35017E-001	0.00000E+000	9	...........	1488.78
	466	6.67032	-1.34106E-001	2.37403E-006	0.00000E+000	-1.34016E-001	0.00000E+000	9	...........	1488.78
	467	6.6846	-1.33103E-001	2.37153E-006	0.00000E+000	-1.33016E-001	0.00000E+000	9	...........	1488.78
	468	6.69888	-1.32104E-001	2.36365E-006	0.00000E+000	-1.32016E-001	0.00000E+000	9	...........	1488.78
	469	6.71317	-1.31105E-001	2.37555E-006	0.00000E+000	-1.31015E-001	0.00000E+000	9	...........	1488.78
	470	6.72745	-1.30103E-001	2.37587E-006	0.00000E+000	-1.30015E-001	0.00000E+000	9	...........	1488.78
	471	6.74173	-1.29105E-001	2.36857E-006	0.00000E+000	-1.29015E-001	0.00000E+000	9	...........	1488.78
	472	6.75602	-1.28102E-001	2.37321E-006	0.00000E+000	-1.28015E-001	0.00000E+000	9	...........	1488.78
	473	6.7703	-1.27102E-001	2.37961E-006	0.00000E+000	-1.27014E-001	0.00000E+000	9	...........	1488.78
	474	6.78458	-1.26100E-001	2.38480E-006	0.00000E+000	-1.26014E-001	0.00000E+000	9	...........	1488.78
	475	6.79887	-1.25101E-001	2.36190E-006	0.00000E+000	-1.25014E-001	0.00000E+000	9	...........	1488.78
	476	6.81315	-1.24100E-001	2.38250E-006	0.00000E+000	-1.24014E-001	0.00000E+000	9	...........	1488.78
	477	6.82743	-1.23101E-001	2.37844E-006	0.00000E+000	-1.23013E-001	0.00000E+000	9	...........	1488.78
	478	6.84172	-1.22102E-001	2.37762E-006	0.00000E+000	-1.22013E-001	0.00000E+000	9	...........	1488.78
	479	6.856	-1.21100E-001	2.38987E-006	0.00000E+000	-1.21013E-001	0.00000E+000	9	...........	1488.78
	480	6.87028	-1.20097E-001	2.39217E-006	0.00000E+000	-1.20013E-001	0.00000E+000	9	...........	1488.78
	481	6.88457	-1.19098E-001	2.38812E-006	0.00000E+000	-1.19012E-001	0.00000E+000	9	...........	1488.78
	482	6.89885	-1.18098E-001	2.39510E-006	0.00000E+000	-1.18012E-001	0.00000E+000	9	...........	1488.74
	483	6.91313	-1.17099E-001	2.39885E-006	0.00000E+000	-1.17012E-001	0.00000E+000	9	...........	1488.69
	484	6.92742	-1.16099E-001	2.39221E-006	0.00000E+000	-1.16011E-001	0.00000E+000	9	...........	1488.69
	485	6.9417	-1.15099E-001	2.40064E-006	0.00000E+000	-1.15011E-001	0.00000E+000	9	...........	1488.69
	486	6.95598	-1.14095E-001	2.39494E-006	0.00000E+000	-1.14011E-001	0.00000E+000	9	...........	1488.69
	487	6.97027	-1.13093E-001	2.39830E-006	0.00000E+000	-1.13011E-001	0.00000E+000	9	...........	1488.69
	488	6.98455	-1.12098E-001	2.39736E-006	0.00000E+000	-1.12010E-001	0.00000E+000	9	...........	1488.69
	489	6.99883	-1.11094E-001	2.38702E-006	0.00000E+000	-1.11010E-001	0.00000E+000	9	...........	1488.69
	490	7.01312	-1.10094E-001	2.39171E-006	0.00000E+000	-1.10010E-001	0.00000E+000	9	...........	1488.69
	491	7.0274	-1.09094E-001	2.39729E-006	0.00000E+000	-1.09010E-001	0.00000E+000	9	...........	1488.69
	492	7.04168	-1.08093E-001	2.40123E-006	0.00000E+000	-1.08009E-001	0.00000E+000	9	...........	1488.69
	493	7.05597	-1.07105E-001	2.37594E-006	0.00000E+000	-1.07022E-001	0.00000E+000	9	...........	1488.69
	494	7.07025	-1.06107E-001	2.40407E-006	0.00000E+000	-1.06021E-001	0.00000E+000	9	...........	1488.69
	495	7.08453	-1.05105E-001	2.38878E-006	0.00000E+000	-1.05021E-001	0.00000E+000	9	...........	1488.69
	496	7.09882	-1.04107E-001	2.39654E-006	0.00000E+000	-1.04021E-001	0.00000E+000	9	...........	1488.69
	497	7.1131	-1.03104E-001	2.39810E-006	0.00000E+000	-1.03020E-001	0.00000E+000	9	...........	1488.69
	498	7.12738	-1.02104E-001	2.40579E-006	0.00000E+000	-1.02020E-001	0.00000E+000	9	...........	1488.69
	499	7.14167	-1.01102E-001	2.40805E-006	0.00000E+000	-1.01020E-001	0.00000E+000	9	...........	1488.69
	500	7.15595	-1.00101E-001	2.41016E-006	0.00000E+000	-1.00020E-001	0.00000E+000	9	...........	1488.69
	501	7.17023	-9.91040E-002	2.41176E-006	0.00000E+000	-9.90194E-002	0.00000E+000	9	...........	1488.69
	502	7.18452	-9.81041E-002	2.41359E-006	0.00000E+000	-9.80191E-002	0.00000E+000	9	...........	1488.69
	503	7.1988	-9.71031E-002	2.40158E-006	0.00000E+000	-9.70189E-002	0.00000E+000	9	...........	1488.69
	504	7.21308	-9.61030E-002	2.40926E-006	0.00000E+000	-9.60186E-002	0.00000E+000	9	...........	1488.69
	505	7.22737	-9.51012E-002	2.41024E-006	0.00000E+000	-9.50183E-002	0.00000E+000	9	...........	1488.69
	506	7.24165	-9.40993E-002	2.41703E-006	0.00000E+000	-9.40181E-002	0.00000E+000	9	...........	1488.69
	507	7.25593	-9.31003E-002	2.40345E-006	0.00000E+000	-9.30178E-002	0.00000E+000	9	...........	1488.69
	508	7.27022	-9.20989E-002	2.41207E-006	0.00000E+000	-9.20175E-002	0.00000E+000	9	...........	1488.69
	509	7.2845	-9.10997E-002	2.41402E-006	0.00000E+000	-9.10173E-002	0.00000E+000	9	...........	1488.69
	510	7.29878	-9.00978E-002	2.40751E-006	0.00000E+000	-9.00170E-002	0.00000E+000	9	...........	1488.69
	511	7.31307	-8.90992E-002	2.42023E-006	0.00000E+000	-8.90167E-002	0.00000E+000	9	...........	1488.69
	512	7.32735	-8.80987E-002	2.41808E-006	0.00000E+000	-8.80165E-002	0.00000E+000	9	...........	1488.69
	513	7.34163	-8.70981E-002	2.42729E-006	0.00000E+000	-8.70162E-002	0.00000E+000	9	...........	1488.69
	514	7.35592	-8.60974E-002	2.42690E-006	0.00000E+000	-8.60159E-002	0.00000E+000	9	...........	1488.69
	515	7.3702	-8.50984E-002	2.42971E-006	0.00000E+000	-8.50157E-002	0.00000E+000	9	...........	1488.69
	516	7.38448	-8.40977E-002	2.43677E-006	0.00000E+000	-8.40154E-002	0.00000E+000	9	...........	1488.69
	517	7.39877	-8.30959E-002	2.43334E-006	0.00000E+000	-8.30151E-002	0.00000E+000	9	...........	1488.69
	518	7.41305	-8.20963E-002	2.43174E-006	0.00000E+000	-8.20149E-002	0.00000E+000	9	...........	1488.69
	519	7.42733	-8.10979E-002	2.43673E-006	0.00000E+000	-8.10146E-002	0.00000E+000	9	...........	1488.69
	520	7.44162	-8.00985E-002	2.42612E-006	0.00000E+000	-8.00143E-002	0.00000E+000	9	...........	1488.69
	521	7.4559	-7.91103E-002	2.41410E-006	0.00000E+000	-7.90266E-002	0.00000E+000	9	...........	1488.69
	522	7.47018	-7.81100E-002	2.44367E-006	0.00000E+000	-7.80263E-002	0.00000E+000	9	...........	1488.69
	523	7.48447	-7.71075E-002	2.44360E-006	0.00000E+000	-7.70260E-002	0.00000E+000	9	...........	1488.69
	524	7.49875	-7.61079E-002	2.44239E-006	0.00000E+000	-7.60258E-002	0.00000E+000	9	...........	1488.69
	525	7.51303	-7.51077E-002	2.43798E-006	0.00000E+000	-7.50255E-002	0.00000E+000	9	...........	1488.69
	526	7.52732	-7.41093E-002	2.45222E-006	0.00000E+000	-7.40252E-002	0.00000E+000	9	...........	1488.69
	527	7.5416	-7.31082E-002	2.45206E-006	0.00000E+000	-7.30250E-002	0.00000E+000	9	...........	1488.69
	528	7.55588	-7.21078E-002	2.45101E-006	0.00000E+000	-7.20247E-002	0.00000E+000	9	...........	1488.69
	529	7.57017	-7.11078E-002	2.45905E-006	0.00000E+000	-7.10244E-002	0.00000E+000	9	...........	1488.69
	530	7.58445	-7.01082E-002	2.46041E-006	0.00000E+000	-7.00242E-002	0.00000E+000	9	...........	1488.69
	531	7.59873	-6.91048E-002	2.45823E-006	0.00000E+000	-6.90239E-002	0.00000E+000	9	...........	1488.69
	532	7.61302	-6.81036E-002	2.46783E-006	0.00000E+000	-6.80236E-002	0.00000E+000	9	...........	1488.69
	533	7.6273	-6.71051E-002	2.46962E-006	0.00000E+000	-6.70234E-002	0.00000E+000	9	...........	1488.69
	534	7.64158	-6.61054E-002	2.47075E-006	0.00000E+000	-6.60231E-002	0.00000E+000	9	...........	1488.69
	535	7.65587	-6.51043E-002	2.47231E-006	0.00000E+000	-6.50228E-002	0.00000E+000	9	...........	1488.69
	536	7.67015	-6.41008E-002	2.47297E-006	0.00000E+000	-6.40226E-002	0.00000E+000	9	...........	1488.69
	537	7.68443	-6.31015E-002	2.47481E-006	0.00000E+000	-6.30223E-002	0.00000E+000	9	...........	1488.69
	538	7.69872	-6.21010E-002	2.47855E-006	0.00000E+000	-6.20220E-002	0.00000E+000	9	...........	1488.69
	539	7.713	-6.11017E-002	2.46677E-006	0.00000E+000	-6.10218E-002	0.00000E+000	9	...........	1488.69
	540	7.72728	-6.01006E-002	2.48632E-006	0.00000E+000	-6.00215E-002	0.00000E+000	9	...........	1488.69
	541	7.74157	-5.90993E-002	2.47723E-006	0.00000E+000	-5.90212E-002	0.00000E+000	9	...........	1488.69
	542	7.75585	-5.80999E-002	2.48207E-006	0.00000E+000	-5.80210E-002	0.00000E+000	9	...........	1488.69
	543	7.77013	-5.71000E-002	2.48823E-006	0.00000E+000	-5.70207E-002	0.00000E+000	9	...........	1488.69
	544	7.78442	-5.60965E-002	2.48456E-006	0.00000E+000	-5.60204E-002	0.00000E+000	9	...........	1488.69
	545	7.7987	-5.50979E-002	2.49432E-006	0.00000E+000	-5.50201E-002	0.00000E+000	9	...........	1488.69
	546	7.81298	-5.40989E-002	2.49213E-006	0.00000E+000	-5.40199E-002	0.00000E+000	9	...........	1488.69
	547	7.82727	-5.30977E-002	2.51351E-006	0.00000E+000	-5.30196E-002	0.00000E+000	9	...........	1488.69
	548	7.84155	-5.20970E-002	2.50524E-006	0.00000E+000	-5.20194E-002	0.00000E+000	9	...........	1488.69
	549	7.85583	-5.10955E-002	2.51905E-006	0.00000E+000	-5.10191E-002	0.00000E+000	9	...........	1488.69
	550	7.87012	-5.01065E-002	2.50189E-006	0.00000E+000	-5.00313E-002	0.00000E+000	9	...........	1488.69
	551	7.8844	-4.91049E-002	2.51183E-006	0.00000E+000	-4.90310E-002	0.00000E+000	9	...........	1488.69
	552	7.89868	-4.81070E-002	2.51652E-006	0.00000E+000	-4.80308E-002	0.00000E+000	9	...........	1488.69
	553	7.91297	-4.71086E-002	2.51991E-006	0.00000E+000	-4.70305E-002	0.00000E+000	9	...........	1488.69
	554	7.92725	-4.61053E-002	2.51995E-006	0.00000E+000	-4.60302E-002	0.00000E+000	9	...........	1488.69
	555	7.94153	-4.51065E-002	2.52857E-006	0.00000E+000	-4.50300E-002	0.00000E+000	9	...........	1488.69
	556	7.95582	-4.41058E-002	2.52842E-006	0.00000E+000	-4.40297E-002	0.00000E+000	9	...........	1488.69
	557	7.9701	-4.31023E-002	2.53509E-006	0.00000E+000	-4.30294E-002	0.00000E+000	9	...........	1488.69
	558	7.98438	-4.21022E-002	2.53548E-006	0.00000E+000	-4.20292E-002	0.00000E+000	9	...........	1488.69
	559	7.99867	-4.11008E-002	2.54351E-006	0.00000E+000	-4.10289E-002	0.00000E+000	9	...........	1488.69
	560	8.01295	-4.01020E-002	2.54480E-006	0.00000E+000	-4.00286E-002	0.00000E+000	9	...........	1488.69
	561	8.02723	-3.91027E-002	2.55764E-006	0.00000E+000	-3.90284E-002	0.00000E+000	9	...........	1488.69
	562	8.04152	-3.80991E-002	2.55303E-006	0.00000E+000	-3.80281E-002	0.00000E+000	9	...........	1488.69
	563	8.0558	-3.70987E-002	2.55947E-006	0.00000E+000	-3.70278E-002	0.00000E+000	9	...........	1488.69
	564	8.07008	-3.60960E-002	2.56622E-006	0.00000E+000	-3.60276E-002	0.00000E+000	9	...........	1488.69
	565	8.08437	-3.50979E-002	2.55487E-006	0.00000E+000	-3.50273E-002	0.00000E+000	9	...........	1488.69
	566	8.09865	-3.40983E-002	2.57504E-006	0.00000E+000	-3.40270E-002	0.00000E+000	9	...........	1488.69
	567	8.11293	-3.30968E-002	2.56607E-006	0.00000E+000	-3.30268E-002	0.00000E+000	9	...........	1488.69
	568	8.12722	-3.20942E-002	2.57500E-006	0.00000E+000	-3.20265E-002	0.00000E+000	9	...........	1488.69
	569	8.1415	-3.10942E-002	2.58300E-006	0.00000E+000	-3.10262E-002	0.00000E+000	9	...........	1488.69
	570	8.15578	-3.00952E-002	2.58971E-006	0.00000E+000	-3.00260E-002	0.00000E+000	9	...........	1488.69
	571	8.17007	-2.90961E-002	2.58776E-006	0.00000E+000	-2.90257E-002	0.00000E+000	9	...........	1488.69
	572	8.18435	-2.80945E-002	2.60032E-006	0.00000E+000	-2.80254E-002	0.00000E+000	9	...........	1488.69
	573	8.19863	-2.70959E-002	2.59630E-006	0.00000E+000	-2.70252E-002	0.00000E+000	9	...........	1488.69
	574	8.21292	-2.60960E-002	2.61226E-006	0.00000E+000	-2.60249E-002	0.00000E+000	9	...........	1488.69
	575	8.2272	-2.50927E-002	2.61125E-006	0.00000E+000	-2.50246E-002	0.00000E+000	9	...........	1488.69
	576	8.24148	-2.40910E-002	2.62798E-006	0.00000E+000	-2.40244E-002	0.00000E+000	9	...........	1488.69
	577	8.25577	-2.30910E-002	2.61823E-006	0.00000E+000	-2.30241E-002	0.00000E+000	9	...........	1488.69
	578	8.27005	-2.20918E-002	2.62752E-006	0.00000E+000	-2.20238E-002	0.00000E+000	9	...........	1488.69
	579	8.28433	-2.11041E-002	2.61546E-006	0.00000E+000	-2.10361E-002	0.00000E+000	9	...........	1488.69
	580	8.29862	-2.01031E-002	2.62802E-006	0.00000E+000	-2.00358E-002	0.00000E+000	9	...........	1488.69
	581	8.3129	-1.91027E-002	2.63309E-006	0.00000E+000	-1.90355E-002	0.00000E+000	9	...........	1488.69
	582	8.32718	-1.80988E-002	2.65155E-006	0.00000E+000	-1.80353E-002	0.00000E+000	9	...........	1488.69
	583	8.34147	-1.70996E-002	2.65607E-006	0.00000E+000	-1.70350E-002	0.00000E+000	9	...........	1488.69
	584	8.35575	-1.61006E-002	2.65014E-006	0.00000E+000	-1.60347E-002	0.00000E+000	9	...........	1488.69
	585	8.37003	-1.50996E-002	2.66782E-006	0.00000E+000	-1.50345E-002	0.00000E+000	9	...........	1488.69
	586	8.38432	-1.40990E-002	2.67628E-006	0.00000E+000	-1.40342E-002	0.00000E+000	9	...........	1488.69
	587	8.3986	-1.30981E-002	2.67484E-006	0.00000E+000	-1.30339E-002	0.00000E+000	9	...........	1488.69
	588	8.41288	-1.20968E-002	2.68577E-006	0.00000E+000	-1.20337E-002	0.00000E+000	9	...........	1488.69
	589	8.42717	-1.10940E-002	2.70313E-006	0.00000E+000	-1.10334E-002	0.00000E+000	9	...........	1488.69
	590	8.44145	-1.00947E-002	2.69642E-006	0.00000E+000	-1.00331E-002	0.00000E+000	9	...........	1488.69
	591	8.45573	-9.09445E-003	2.69806E-006	0.00000E+000	-9.03286E-003	0.00000E+000	9	...........	1488.69
	592	8.47002	-8.09374E-003	2.71308E-006	0.00000E+000	-8.03259E-003	0.00000E+000	9	...........	1488.69
	593	8.4843	-7.09354E-003	2.70730E-006	0.00000E+000	-7.03233E-003	0.00000E+000	9	...........	1488.69
	594	8.49858	-6.09382E-003	2.71074E-006	0.00000E+000	-6.03206E-003	0.00000E+000	9	...........	1488.69
	595	8.51287	-5.08971E-003	2.72201E-006	0.00000E+000	-5.03179E-003	0.00000E+000	9	...........	1488.69
	596	8.52715	-4.09013E-003	2.73297E-006	0.00000E+000	-4.03152E-003	0.00000E+000	9	...........	1488.69
	597	8.54143	-3.09160E-003	2.72985E-006	0.00000E+000	-3.03125E-003	0.00000E+000	9	...........	1488.69
	598	8.55572	-2.09100E-003	2.74031E-006	0.00000E+000	-2.03099E-003	0.00000E+000	9	...........	1488.69
	599	8.57	-1.09033E-003	2.74796E-006	0.00000E+000	-1.03072E-003	0.00000E+000	9	...........	1488.69
	600	8.58428	-8.86056E-005	2.75381E-006	0.00000E+000	-3.04505E-005	0.00000E+000	9	...........	1488.69
	601	8.59857	-1.06007E-003	-3.09570E-007	0.00000E+000	-1.03072E-003	0.00000E+000	9	...........	1488.69
	602	8.61285	-2.06173E-003	-4.45383E-007	0.00000E+000	-2.03099E-003	0.00000E+000	9	...........	1488.69
	603	8.62713	-3.06192E-003	-5.24233E-007	0.00000E+000	-3.03125E-003	0.00000E+000	9	...........	1488.69
	604	8.64142	-4.06097E-003	-5.72612E-007	0.00000E+000	-4.03152E-003	0.00000E+000	9	...........	1488.69
	605	8.6557	-5.06054E-003	-6.33945E-007	0.00000E+000	-5.03179E-003	0.00000E+000	9	...........	1488.69
	606	8.66998	-6.06409E-003	-6.62972E-007	0.00000E+000	-6.03206E-003	0.00000E+000	9	...........	1488.69
	607	8.68427	-7.06370E-003	-6.94224E-007	0.00000E+000	-7.03233E-003	0.00000E+000	9	...........	1488.69
	608	8.69855	-8.06461E-003	-7.22159E-007	0.00000E+000	-8.03259E-003	0.00000E+000	9	...........	1488.69
	609	8.71283	-9.06394E-003	-7.45763E-007	0.00000E+000	-9.03286E-003	0.00000E+000	9	...........	1488.69
	610	8.72712	-1.00643E-002	-7.64373E-007	0.00000E+000	-1.00331E-002	0.00000E+000	9	...........	1488.69
	611	8.7414	-1.10640E-002	-7.81618E-007	0.00000E+000	-1.10334E-002	0.00000E+000	9	...........	1488.69
	612	8.75568	-1.20672E-002	-8.17591E-007	0.00000E+000	-1.20337E-002	0.00000E+000	9	...........	1488.69
	613	8.76997	-1.30679E-002	-8.32065E-007	0.00000E+000	-1.30339E-002	0.00000E+000	9	...........	1488.69
	614	8.78425	-1.40694E-002	-8.39361E-007	0.00000E+000	-1.40342E-002	0.00000E+000	9	...........	1488.69
	615	8.79853	-1.50682E-002	-8.63824E-007	0.00000E+000	-1.50345E-002	0.00000E+000	9	...........	1488.69
	616	8.81282	-1.60695E-002	-8.71042E-007	0.00000E+000	-1.60347E-002	0.00000E+000	9	...........	1488.69
	617	8.8271	-1.70689E-002	-8.71120E-007	0.00000E+000	-1.70350E-002	0.00000E+000	9	...........	1488.69
	618	8.84138	-1.80687E-002	-8.91876E-007	0.00000E+000	-1.80353E-002	0.00000E+000	9	...........	1488.69
	619	8.85567	-1.90711E-002	-9.04790E-007	0.00000E+000	-1.90355E-002	0.00000E+000	9	...........	1488.69
	620	8.86995	-2.00736E-002	-9.29253E-007	0.00000E+000	-2.00358E-002	0.00000E+000	9	...........	1488.69
	621	8.88423	-2.10751E-002	-9.24922E-007	0.00000E+000	-2.10361E-002	0.00000E+000	9	...........	1488.69
	622	8.89852	-2.20631E-002	-9.24610E-007	0.00000E+000	-2.20238E-002	0.00000E+000	9	...........	1488.69
	623	8.9128	-2.30623E-002	-9.50516E-007	0.00000E+000	-2.30241E-002	0.00000E+000	9	...........	1488.69
	624	8.92708	-2.40624E-002	-9.69010E-007	0.00000E+000	-2.40244E-002	0.00000E+000	9	...........	1488.69
	625	8.94137	-2.50632E-002	-9.76228E-007	0.00000E+000	-2.50246E-002	0.00000E+000	9	...........	1488.69
	626	8.95565	-2.60646E-002	-9.93979E-007	0.00000E+000	-2.60249E-002	0.00000E+000	9	...........	1488.69
	627	8.96993	-2.70640E-002	-1.00003E-006	0.00000E+000	-2.70252E-002	0.00000E+000	9	...........	1488.69
	628	8.98422	-2.80639E-002	-1.00498E-006	0.00000E+000	-2.80254E-002	0.00000E+000	9	...........	1488.69
	629	8.9985	-2.90660E-002	-1.01122E-006	0.00000E+000	-2.90257E-002	0.00000E+000	9	...........	1488.69
	630	9.01278	-3.00659E-002	-1.01259E-006	0.00000E+000	-3.00260E-002	0.00000E+000	9	...........	1488.69
	631	9.02707	-3.10641E-002	-1.03101E-006	0.00000E+000	-3.10262E-002	0.00000E+000	9	...........	1488.69
	632	9.04135	-3.20673E-002	-1.04013E-006	0.00000E+000	-3.20265E-002	0.00000E+000	9	...........	1488.69
	633	9.05563	-3.30691E-002	-1.05995E-006	0.00000E+000	-3.30268E-002	0.00000E+000	9	...........	1488.69
	634	9.06992	-3.40701E-002	-1.06382E-006	0.00000E+000	-3.40270E-002	0.00000E+000	9	...........	1488.69
	635	9.0842	-3.50732E-002	-1.06842E-006	0.00000E+000	-3.50273E-002	0.00000E+000	9	...........	1488.69
	636	9.09848	-3.60690E-002	-1.06975E-006	0.00000E+000	-3.60276E-002	0.00000E+000	9	...........	1488.69
	637	9.11277	-3.70709E-002	-1.08516E-006	0.00000E+000	-3.70278E-002	0.00000E+000	9	...........	1488.69
	638	9.12705	-3.80707E-002	-1.09331E-006	0.00000E+000	-3.80281E-002	0.00000E+000	9	...........	1488.69
	639	9.14133	-3.90736E-002	-1.09952E-006	0.00000E+000	-3.90284E-002	0.00000E+000	9	...........	1488.69
	640	9.15562	-4.00738E-002	-1.11376E-006	0.00000E+000	-4.00286E-002	0.00000E+000	9	...........	1488.69
	641	9.1699	-4.10719E-002	-1.11719E-006	0.00000E+000	-4.10289E-002	0.00000E+000	9	...........	1488.69
	642	9.18418	-4.20715E-002	-1.12511E-006	0.00000E+000	-4.20292E-002	0.00000E+000	9	...........	1488.69
	643	9.19847	-4.30727E-002	-1.13639E-006	0.00000E+000	-4.30294E-002	0.00000E+000	9	...........	1488.69
	644	9.21275	-4.40750E-002	-1.14095E-006	0.00000E+000	-4.40297E-002	0.00000E+000	9	...........	1488.69
	645	9.22703	-4.50775E-002	-1.15882E-006	0.00000E+000	-4.50300E-002	0.00000E+000	9	...........	1488.69
	646	9.24132	-4.60753E-002	-1.15980E-006	0.00000E+000	-4.60302E-002	0.00000E+000	9	...........	1488.69
	647	9.2556	-4.70771E-002	-1.16990E-006	0.00000E+000	-4.70305E-002	0.00000E+000	9	...........	1488.69
	648	9.26988	-4.80780E-002	-1.17657E-006	0.00000E+000	-4.80308E-002	0.00000E+000	9	...........	1488.69
	649	9.28417	-4.90736E-002	-1.17142E-006	0.00000E+000	-4.90310E-002	0.00000E+000	9	...........	1488.69
	650	9.29845	-5.00749E-002	-1.18410E-006	0.00000E+000	-5.00313E-002	0.00000E+000	9	...........	1488.69
	651	9.31273	-5.10653E-002	-1.16986E-006	0.00000E+000	-5.10191E-002	0.00000E+000	9	...........	1488.69
	652	9.32702	-5.20662E-002	-1.19604E-006	0.00000E+000	-5.20194E-002	0.00000E+000	9	...........	1488.69
	653	9.3413	-5.30675E-002	-1.20404E-006	0.00000E+000	-5.30196E-002	0.00000E+000	9	...........	1488.69
	654	9.35558	-5.40696E-002	-1.20447E-006	0.00000E+000	-5.40199E-002	0.00000E+000	9	...........	1488.69
	655	9.36987	-5.50685E-002	-1.20977E-006	0.00000E+000	-5.50201E-002	0.00000E+000	9	...........	1488.69
	656	9.38415	-5.60671E-002	-1.20903E-006	0.00000E+000	-5.60204E-002	0.00000E+000	9	...........	1488.69
	657	9.39843	-5.70709E-002	-1.22409E-006	0.00000E+000	-5.70207E-002	0.00000E+000	9	...........	1488.69
	658	9.41272	-5.80713E-002	-1.22737E-006	0.00000E+000	-5.80210E-002	0.00000E+000	9	...........	1488.69
	659	9.427	-5.90701E-002	-1.24005E-006	0.00000E+000	-5.90212E-002	0.00000E+000	9	...........	1488.69
	660	9.44128	-6.00716E-002	-1.22909E-006	0.00000E+000	-6.00215E-002	0.00000E+000	9	...........	1488.69
	661	9.45557	-6.10732E-002	-1.25070E-006	0.00000E+000	-6.10218E-002	0.00000E+000	9	...........	1488.69
	662	9.46985	-6.20737E-002	-1.24930E-006	0.00000E+000	-6.20220E-002	0.00000E+000	9	...........	1488.69
	663	9.48413	-6.30745E-002	-1.25667E-006	0.00000E+000	-6.30223E-002	0.00000E+000	9	...........	1488.69
	664	9.49842	-6.40731E-002	-1.26381E-006	0.00000E+000	-6.40226E-002	0.00000E+000	9	...........	1488.69
	665	9.5127	-6.50760E-002	-1.27099E-006	0.00000E+000	-6.50228E-002	0.00000E+000	9	...........	1488.69
	666	9.527	-6.60752E-002	-1.27111E-006	0.00000E+000	-6.60231E-002	0.00000E+000	9	...........	1488.69
	667	9.5413	-6.70779E-002	-1.28648E-006	0.00000E+000	-6.70234E-002	0.00000E+000	9	...........	1488.69
	668	9.5556	-6.80738E-002	-1.28558E-006	0.00000E+000	-6.80236E-002	0.00000E+000	9	...........	1488.69
	669	9.5698	-6.90755E-002	-1.29912E-006	0.00000E+000	-6.90239E-002	0.00000E+000	9	...........	1488.69
	670	9.5841	-7.00770E-002	-1.28843E-006	0.00000E+000	-7.00242E-002	0.00000E+000	9	...........	1488.69
	671	9.5984	-7.10791E-002	-1.31578E-006	0.00000E+000	-7.10244E-002	0.00000E+000	9	...........	1488.69
	672	9.6127	-7.20781E-002	-1.31851E-006	0.00000E+000	-7.20247E-002	0.00000E+000	9	...........	1488.69
	673	9.627	-7.30775E-002	-1.31543E-006	0.00000E+000	-7.30250E-002	0.00000E+000	9	...........	1488.69
	674	9.6413	-7.40787E-002	-1.32350E-006	0.00000E+000	-7.40252E-002	0.00000E+000	9	...........	1488.69
	675	9.6555	-7.50789E-002	-1.33431E-006	0.00000E+000	-7.50255E-002	0.00000E+000	9	...........	1488.69
	676	9.6698	-7.60784E-002	-1.33599E-006	0.00000E+000	-7.60258E-002	0.00000E+000	9	...........	1488.69
	677	9.6841	-7.70774E-002	-1.34172E-006	0.00000E+000	-7.70260E-002	0.00000E+000	9	...........	1488.69
	678	9.6984	-7.80791E-002	-1.35472E-006	0.00000E+000	-7.80263E-002	0.00000E+000	9	...........	1488.69
	679	9.7127	-7.90802E-002	-1.35998E-006	0.00000E+000	-7.90266E-002	0.00000E+000	9	...........	1488.69
	680	9.727	-8.00682E-002	-1.34106E-006	0.00000E+000	-8.00143E-002	0.00000E+000	9	...........	1488.69
	681	9.7412	-8.10679E-002	-1.36939E-006	0.00000E+000	-8.10146E-002	0.00000E+000	9	...........	1488.69
	682	9.7555	-8.20677E-002	-1.38004E-006	0.00000E+000	-8.20149E-002	0.00000E+000	9	...........	1488.69
	683	9.7698	-8.30676E-002	-1.38413E-006	0.00000E+000	-8.30151E-002	0.00000E+000	9	...........	1488.69
	684	9.7841	-8.40682E-002	-1.37610E-006	0.00000E+000	-8.40154E-002	0.00000E+000	9	...........	1488.69
	685	9.7984	-8.50690E-002	-1.39139E-006	0.00000E+000	-8.50157E-002	0.00000E+000	9	...........	1488.69
	686	9.8127	-8.60696E-002	-1.39900E-006	0.00000E+000	-8.60159E-002	0.00000E+000	9	...........	1488.69
	687	9.8269	-8.70702E-002	-1.40001E-006	0.00000E+000	-8.70162E-002	0.00000E+000	9	...........	1488.69
	688	9.8412	-8.80697E-002	-1.39767E-006	0.00000E+000	-8.80165E-002	0.00000E+000	9	...........	1488.69
	689	9.8555	-8.90709E-002	-1.41991E-006	0.00000E+000	-8.90167E-002	0.00000E+000	9	...........	1488.69
	690	9.8698	-9.00698E-002	-1.42151E-006	0.00000E+000	-9.00170E-002	0.00000E+000	9	...........	1488.69
	691	9.8841	-9.10703E-002	-1.42229E-006	0.00000E+000	-9.10173E-002	0.00000E+000	9	...........	1488.69
	692	9.8984	-9.20721E-002	-1.43630E-006	0.00000E+000	-9.20175E-002	0.00000E+000	9	...........	1488.69
	693	9.9126	-9.30732E-002	-1.43692E-006	0.00000E+000	-9.30178E-002	0.00000E+000	9	...........	1488.69
	694	9.9269	-9.40718E-002	-1.44305E-006	0.00000E+000	-9.40181E-002	0.00000E+000	9	...........	1488.69
	695	9.9412	-9.50728E-002	-1.45713E-006	0.00000E+000	-9.50183E-002	0.00000E+000	9	...........	1488.69
	696	9.9555	-9.60739E-002	-1.46115E-006	0.00000E+000	-9.60186E-002	0.00000E+000	9	...........	1488.69
	697	9.9698	-9.70748E-002	-1.46310E-006	0.00000E+000	-9.70189E-002	0.00000E+000	9	...........	1488.69
	698	9.9841	-9.80765E-002	-1.47102E-006	0.00000E+000	-9.80191E-002	0.00000E+000	9	...........	1488.69
	699	9.9983	-9.90780E-002	-1.47289E-006	0.00000E+000	-9.90194E-002	0.00000E+000	9	...........	1488.69
	700	10.0126	-1.00074E-001	-1.48066E-006	0.00000E+000	-1.00020E-001	0.00000E+000	9	...........	1488.69
	701	10.0269	-1.01074E-001	-1.48678E-006	0.00000E+000	-1.01020E-001	0.00000E+000	9	...........	1488.69
	702	10.0412	-1.02076E-001	-1.49634E-006	0.00000E+000	-1.02020E-001	0.00000E+000	9	...........	1488.69
	703	10.0555	-1.03078E-001	-1.49915E-006	0.00000E+000	-1.03020E-001	0.00000E+000	9	...........	1488.69
	704	10.0698	-1.04078E-001	-1.50485E-006	0.00000E+000	-1.04021E-001	0.00000E+000	9	...........	1488.69
	705	10.084	-1.05076E-001	-1.51117E-006	0.00000E+000	-1.05021E-001	0.00000E+000	9	...........	1488.69
	706	10.0983	-1.06077E-001	-1.51468E-006	0.00000E+000	-1.06021E-001	0.00000E+000	9	...........	1488.69
	707	10.1126	-1.07077E-001	-1.53072E-006	0.00000E+000	-1.07022E-001	0.00000E+000	9	...........	1488.69
	708	10.1269	-1.08064E-001	-1.50696E-006	0.00000E+000	-1.08009E-001	0.00000E+000	9	...........	1488.69
	709	10.1412	-1.09065E-001	-1.53957E-006	0.00000E+000	-1.09010E-001	0.00000E+000	9	...........	1488.69
	710	10.1555	-1.10066E-001	-1.55077E-006	0.00000E+000	-1.10010E-001	0.00000E+000	9	...........	1488.69
	711	10.1697	-1.11066E-001	-1.55214E-006	0.00000E+000	-1.11010E-001	0.00000E+000	9	...........	1488.69
	712	10.184	-1.12068E-001	-1.54917E-006	0.00000E+000	-1.12010E-001	0.00000E+000	9	...........	1488.69
	713	10.1983	-1.13065E-001	-1.55990E-006	0.00000E+000	-1.13011E-001	0.00000E+000	9	...........	1488.69
	714	10.2126	-1.14067E-001	-1.57071E-006	0.00000E+000	-1.14011E-001	0.00000E+000	9	...........	1488.69
	715	10.2269	-1.15068E-001	-1.57660E-006	0.00000E+000	-1.15011E-001	0.00000E+000	9	...........	1488.69
	716	10.2412	-1.16068E-001	-1.58530E-006	0.00000E+000	-1.16011E-001	0.00000E+000	9	...........	1488.69
	717	10.2554	-1.17069E-001	-1.59197E-006	0.00000E+000	-1.17012E-001	0.00000E+000	9	...........	1488.69
	718	10.2697	-1.18067E-001	-1.59942E-006	0.00000E+000	-1.18012E-001	0.00000E+000	9	...........	1488.69
	719	10.284	-1.19068E-001	-1.60473E-006	0.00000E+000	-1.19012E-001	0.00000E+000	9	...........	1488.69
	720	10.2983	-1.20068E-001	-1.60730E-006	0.00000E+000	-1.20013E-001	0.00000E+000	9	...........	1488.69
	721	10.3126	-1.21070E-001	-1.62225E-006	0.00000E+000	-1.21013E-001	0.00000E+000	9	...........	1488.69
	722	10.3268	-1.22070E-001	-1.61667E-006	0.00000E+000	-1.22013E-001	0.00000E+000	9	...........	1488.69
	723	10.3411	-1.23069E-001	-1.62424E-006	0.00000E+000	-1.23013E-001	0.00000E+000	9	...........	1488.69
	724	10.3554	-1.24070E-001	-1.63629E-006	0.00000E+000	-1.24014E-001	0.00000E+000	9	...........	1488.69
	725	10.3697	-1.25070E-001	-1.63711E-006	0.00000E+000	-1.25014E-001	0.00000E+000	9	...........	1488.69
	726	10.384	-1.26072E-001	-1.64991E-006	0.00000E+000	-1.26014E-001	0.00000E+000	9	...........	1488.69
	727	10.3983	-1.27072E-001	-1.65381E-006	0.00000E+000	-1.27014E-001	0.00000E+000	9	...........	1488.69
	728	10.4125	-1.28073E-001	-1.66399E-006	0.00000E+000	-1.28015E-001	0.00000E+000	9	...........	1488.69
	729	10.4268	-1.29074E-001	-1.67180E-006	0.00000E+000	-1.29015E-001	0.00000E+000	9	...........	1488.69
	730	10.4411	-1.30073E-001	-1.67363E-006	0.00000E+000	-1.30015E-001	0.00000E+000	9	...........	1488.69
	731	10.4554	-1.31075E-001	-1.69146E-006	0.00000E+000	-1.31015E-001	0.00000E+000	9	...........	1488.69
	732	10.4697	-1.32072E-001	-1.68623E-006	0.00000E+000	-1.32016E-001	0.00000E+000	9	...........	1488.69
	733	10.484	-1.33074E-001	-1.69575E-006	0.00000E+000	-1.33016E-001	0.00000E+000	9	...........	1488.69
	734	10.4983	-1.34075E-001	-1.69797E-006	0.00000E+000	-1.34016E-001	0.00000E+000	9	...........	1488.69
	735	10.5125	-1.35077E-001	-1.71803E-006	0.00000E+000	-1.35017E-001	0.00000E+000	9	...........	1488.69
	736	10.5268	-1.36076E-001	-1.72525E-006	0.00000E+000	-1.36017E-001	0.00000E+000	9	...........	1488.69
	737	10.5411	-1.37066E-001	-1.71214E-006	0.00000E+000	-1.37005E-001	0.00000E+000	9	...........	1488.69
	738	10.5554	-1.38065E-001	-1.74101E-006	0.00000E+000	-1.38005E-001	0.00000E+000	9	...........	1488.69
	739	10.5697	-1.39065E-001	-1.73488E-006	0.00000E+000	-1.39005E-001	0.00000E+000	9	...........	1488.69
	740	10.584	-1.40066E-001	-1.75400E-006	0.00000E+000	-1.40005E-001	0.00000E+000	9	...........	1488.69
	741	10.5982	-1.41066E-001	-1.75502E-006	0.00000E+000	-1.41006E-001	0.00000E+000	9	...........	1488.69
	742	10.6125	-1.42067E-001	-1.76949E-006	0.00000E+000	-1.42006E-001	0.00000E+000	9	...........	1488.69
	743	10.6268	-1.43069E-001	-1.77940E-006	0.00000E+000	-1.43006E-001	0.00000E+000	9	...........	1488.69
	744	10.6411	-1.44068E-001	-1.77632E-006	0.00000E+000	-1.44006E-001	0.00000E+000	9	...........	1488.69
	745	10.6554	-1.45070E-001	-1.79169E-006	0.00000E+000	-1.45007E-001	0.00000E+000	9	...........	1488.69
	746	10.6697	-1.46069E-001	-1.80117E-006	0.00000E+000	-1.46007E-001	0.00000E+000	9	...........	1488.69
	747	10.6839	-1.47072E-001	-1.79988E-006	0.00000E+000	-1.47007E-001	0.00000E+000	9	...........	1488.69
	748	10.6982	-1.48073E-001	-1.81572E-006	0.00000E+000	-1.48008E-001	0.00000E+000	9	...........	1488.69
	749	10.7125	-1.49071E-001	-1.82712E-006	0.00000E+000	-1.49008E-001	0.00000E+000	9	...........	1488.69
	750	10.7268	-1.50071E-001	-1.83172E-006	0.00000E+000	-1.50008E-001	0.00000E+000	9	...........	1488.69
	751	10.7411	-1.51071E-001	-1.84815E-006	0.00000E+000	-1.51008E-001	0.00000E+000	9	...........	1488.69
	752	10.7554	-1.52069E-001	-1.84440E-006	0.00000E+000	-1.52009E-001	0.00000E+000	9	...........	1488.69
	753	10.7696	-1.53071E-001	-1.86227E-006	0.00000E+000	-1.53009E-001	0.00000E+000	9	...........	1488.69
	754	10.7839	-1.54070E-001	-1.86797E-006	0.00000E+000	-1.54009E-001	0.00000E+000	9	...........	1488.69
	755	10.7982	-1.55072E-001	-1.87374E-006	0.00000E+000	-1.55009E-001	0.00000E+000	9	...........	1488.69
	756	10.8125	-1.56072E-001	-1.88880E-006	0.00000E+000	-1.56010E-001	0.00000E+000	9	...........	1488.69
	757	10.8268	-1.57072E-001	-1.89485E-006	0.00000E+000	-1.57010E-001	0.00000E+000	9	...........	1488.69
	758	10.8411	-1.58071E-001	-1.90679E-006	0.00000E+000	-1.58010E-001	0.00000E+000	9	...........	1488.69
	759	10.8553	-1.59069E-001	-1.91482E-006	0.00000E+000	-1.59010E-001	0.00000E+000	9	...........	1488.69
	760	10.8696	-1.60072E-001	-1.92789E-006	0.00000E+000	-1.60011E-001	0.00000E+000	9	...........	1488.69
	761	10.8839	-1.61074E-001	-1.93823E-006	0.00000E+000	-1.61011E-001	0.00000E+000	9	...........	1488.69
	762	10.8982	-1.62076E-001	-1.94779E-006	0.00000E+000	-1.62011E-001	0.00000E+000	9	...........	1488.69
	763	10.9125	-1.63076E-001	-1.96254E-006	0.00000E+000	-1.63012E-001	0.00000E+000	9	...........	1488.69
	764	10.9268	-1.64075E-001	-1.96995E-006	0.00000E+000	-1.64012E-001	0.00000E+000	9	...........	1488.69
	765	10.941	-1.65072E-001	-1.97670E-006	0.00000E+000	-1.65012E-001	0.00000E+000	9	...........	1488.69
	766	10.9553	-1.66061E-001	-1.96722E-006	0.00000E+000	-1.66000E-001	0.00000E+000	9	...........	1488.69
	767	10.9696	-1.67063E-001	-2.00772E-006	0.00000E+000	-1.67000E-001	0.00000E+000	9	...........	1488.69
	768	10.9839	-1.68063E-001	-2.01213E-006	0.00000E+000	-1.68000E-001	0.00000E+000	9	...........	1488.69
	769	10.9982	-1.69064E-001	-2.02399E-006	0.00000E+000	-1.69001E-001	0.00000E+000	9	...........	1488.69
	770	11.0125	-1.70064E-001	-2.04541E-006	0.00000E+000	-1.70001E-001	0.00000E+000	9	...........	1488.69
	771	11.0267	-1.71063E-001	-2.04283E-006	0.00000E+000	-1.71001E-001	0.00000E+000	9	...........	1488.69
	772	11.041	-1.72065E-001	-2.06854E-006	0.00000E+000	-1.72001E-001	0.00000E+000	9	...........	1488.69
	773	11.0553	-1.73065E-001	-2.07603E-006	0.00000E+000	-1.73002E-001	0.00000E+000	9	...........	1488.69
	774	11.0696	-1.74065E-001	-2.08524E-006	0.00000E+000	-1.74002E-001	0.00000E+000	9	...........	1488.69
	775	11.0839	-1.75067E-001	-2.09433E-006	0.00000E+000	-1.75002E-001	0.00000E+000	9	...........	1488.69
	776	11.0982	-1.76068E-001	-2.11201E-006	0.00000E+000	-1.76002E-001	0.00000E+000	9	...........	1488.69
	777	11.1124	-1.77064E-001	-2.12383E-006	0.00000E+000	-1.77003E-001	0.00000E+000	9	...........	1488.69
	778	11.1267	-1.78068E-001	-2.14213E-006	0.00000E+000	-1.78003E-001	0.00000E+000	9	...........	1488.69
	779	11.141	-1.79068E-001	-2.14985E-006	0.00000E+000	-1.79003E-001	0.00000E+000	9	...........	1488.69
	780	11.1553	-1.80070E-001	-2.17002E-006	0.00000E+000	-1.80004E-001	0.00000E+000	9	...........	1488.69
	781	11.1696	-1.81072E-001	-2.16956E-006	0.00000E+000	-1.81004E-001	0.00000E+000	9	...........	1488.69
	782	11.1839	-1.82070E-001	-2.20241E-006	0.00000E+000	-1.82004E-001	0.00000E+000	9	...........	1488.69
	783	11.1981	-1.83070E-001	-2.20233E-006	0.00000E+000	-1.83004E-001	0.00000E+000	9	...........	1488.69
	784	11.2124	-1.84070E-001	-2.21957E-006	0.00000E+000	-1.84005E-001	0.00000E+000	9	...........	1488.69
	785	11.2267	-1.85069E-001	-2.23717E-006	0.00000E+000	-1.85005E-001	0.00000E+000	9	...........	1488.69
	786	11.241	-1.86071E-001	-2.25250E-006	0.00000E+000	-1.86005E-001	0.00000E+000	9	...........	1488.69
	787	11.2553	-1.87072E-001	-2.27466E-006	0.00000E+000	-1.87005E-001	0.00000E+000	9	...........	1488.69
	788	11.2696	-1.88075E-001	-2.29370E-006	0.00000E+000	-1.88006E-001	0.00000E+000	9	...........	1488.69
	789	11.2838	-1.89075E-001	-2.29756E-006	0.00000E+000	-1.89006E-001	0.00000E+000	9	...........	1488.69
	790	11.2981	-1.90073E-001	-2.31715E-006	0.00000E+000	-1.90006E-001	0.00000E+000	9	...........	1488.69
	791	11.3124	-1.91072E-001	-2.33873E-006	0.00000E+000	-1.91006E-001	0.00000E+000	9	...........	1488.69
	792	11.3267	-1.92073E-001	-2.37169E-006	0.00000E+000	-1.92007E-001	0.00000E+000	9	...........	1488.69
	793	11.341	-1.93076E-001	-2.37641E-006	0.00000E+000	-1.93007E-001	0.00000E+000	9	...........	1488.69
	794	11.3553	-1.94063E-001	-2.38176E-006	0.00000E+000	-1.93995E-001	0.00000E+000	9	...........	1488.69
	795	11.3695	-1.95064E-001	-2.42187E-006	0.00000E+000	-1.94995E-001	0.00000E+000	9	...........	1488.69
	796	11.3838	-1.96063E-001	-2.44102E-006	0.00000E+000	-1.95995E-001	0.00000E+000	9	...........	1488.69
	797	11.3981	-1.97063E-001	-2.45753E-006	0.00000E+000	-1.96996E-001	0.00000E+000	9	...........	1488.69
	798	11.4124	-1.98066E-001	-2.48757E-006	0.00000E+000	-1.97996E-001	0.00000E+000	9	...........	1488.69
	799	11.4267	-1.99068E-001	-2.50201E-006	0.00000E+000	-1.98996E-001	0.00000E+000	9	...........	1488.69
	800	11.441	-2.00067E-001	-2.51465E-006	0.00000E+000	-1.99996E-001	0.00000E+000	9	...........	1488.69
CURVE3	TABLE
	Pt	T	Vf	Im	Vu	Sig	Ach	IERange	Over	Temp
	#	s	V vs. Ref.	A	V	V	V	#	bits	deg C
	801	11.4552	-1.99098E-001	1.35713E-006	0.00000E+000	-1.98996E-001	0.00000E+000	9	...........	1488.69
	802	11.4695	-1.98096E-001	1.55116E-006	0.00000E+000	-1.97996E-001	0.00000E+000	9	...........	1488.69
	803	11.4838	-1.97094E-001	1.67296E-006	0.00000E+000	-1.96996E-001	0.00000E+000	9	...........	1488.69
	804	11.4981	-1.96094E-001	1.74104E-006	0.00000E+000	-1.95995E-001	0.00000E+000	9	...........	1488.69
	805	11.5124	-1.95095E-001	1.80386E-006	0.00000E+000	-1.94995E-001	0.00000E+000	9	...........	1488.69
	806	11.5267	-1.94094E-001	1.86227E-006	0.00000E+000	-1.93995E-001	0.00000E+000	9	...........	1488.69
	807	11.5409	-1.93106E-001	1.88439E-006	0.00000E+000	-1.93007E-001	0.00000E+000	9	...........	1488.69
	808	11.5552	-1.92103E-001	1.94408E-006	0.00000E+000	-1.92007E-001	0.00000E+000	9	...........	1488.69
	809	11.5695	-1.91103E-001	1.97900E-006	0.00000E+000	-1.91006E-001	0.00000E+000	9	...........	1488.69
	810	11.5838	-1.90104E-001	2.00565E-006	0.00000E+000	-1.90006E-001	0.00000E+000	9	...........	1488.69
	811	11.5981	-1.89104E-001	2.02344E-006	0.00000E+000	-1.89006E-001	0.00000E+000	9	...........	1488.69
	812	11.6124	-1.88103E-001	2.03709E-006	0.00000E+000	-1.88006E-001	0.00000E+000	9	...........	1488.69
	813	11.6266	-1.87102E-001	2.05461E-006	0.00000E+000	-1.87005E-001	0.00000E+000	9	...........	1488.69
	814	11.6409	-1.86102E-001	2.08399E-006	0.00000E+000	-1.86005E-001	0.00000E+000	9	...........	1488.69
	815	11.6552	-1.85101E-001	2.09979E-006	0.00000E+000	-1.85005E-001	0.00000E+000	9	...........	1488.69
	816	11.6695	-1.84100E-001	2.10174E-006	0.00000E+000	-1.84005E-001	0.00000E+000	9	...........	1488.69
	817	11.6838	-1.83101E-001	2.12145E-006	0.00000E+000	-1.83004E-001	0.00000E+000	9	...........	1488.69
	818	11.6981	-1.82099E-001	2.13381E-006	0.00000E+000	-1.82004E-001	0.00000E+000	9	...........	1488.69
	819	11.7123	-1.81101E-001	2.14946E-006	0.00000E+000	-1.81004E-001	0.00000E+000	9	...........	1488.69
	820	11.7266	-1.80099E-001	2.15332E-006	0.00000E+000	-1.80004E-001	0.00000E+000	9	...........	1488.69
	821	11.7409	-1.79098E-001	2.17107E-006	0.00000E+000	-1.79003E-001	0.00000E+000	9	...........	1488.69
	822	11.7552	-1.78097E-001	2.17373E-006	0.00000E+000	-1.78003E-001	0.00000E+000	9	...........	1488.69
	823	11.7695	-1.77095E-001	2.18902E-006	0.00000E+000	-1.77003E-001	0.00000E+000	9	...........	1488.69
	824	11.7838	-1.76098E-001	2.19522E-006	0.00000E+000	-1.76002E-001	0.00000E+000	9	...........	1488.69
	825	11.798	-1.75098E-001	2.20221E-006	0.00000E+000	-1.75002E-001	0.00000E+000	9	...........	1488.69
	826	11.8123	-1.74096E-001	2.20314E-006	0.00000E+000	-1.74002E-001	0.00000E+000	9	...........	1488.69
	827	11.8266	-1.73094E-001	2.21235E-006	0.00000E+000	-1.73002E-001	0.00000E+000	9	...........	1488.69
	828	11.8409	-1.72094E-001	2.22616E-006	0.00000E+000	-1.72001E-001	0.00000E+000	9	...........	1488.69
	829	11.8552	-1.71092E-001	2.22394E-006	0.00000E+000	-1.71001E-001	0.00000E+000	9	...........	1488.69
	830	11.8695	-1.70093E-001	2.23030E-006	0.00000E+000	-1.70001E-001	0.00000E+000	9	...........	1488.69
	831	11.8837	-1.69092E-001	2.23486E-006	0.00000E+000	-1.69001E-001	0.00000E+000	9	...........	1488.69
	832	11.898	-1.68091E-001	2.24075E-006	0.00000E+000	-1.68000E-001	0.00000E+000	9	...........	1488.69
	833	11.9123	-1.67093E-001	2.24497E-006	0.00000E+000	-1.67000E-001	0.00000E+000	9	...........	1488.69
	834	11.9266	-1.66091E-001	2.24973E-006	0.00000E+000	-1.66000E-001	0.00000E+000	9	...........	1488.69
	835	11.9409	-1.65104E-001	2.23112E-006	0.00000E+000	-1.65012E-001	0.00000E+000	9	...........	1488.69
	836	11.9552	-1.64106E-001	2.25246E-006	0.00000E+000	-1.64012E-001	0.00000E+000	9	...........	1488.69
	837	11.9694	-1.63107E-001	2.25199E-006	0.00000E+000	-1.63012E-001	0.00000E+000	9	...........	1488.69
	838	11.9837	-1.62105E-001	2.26210E-006	0.00000E+000	-1.62011E-001	0.00000E+000	9	...........	1488.69
	839	11.998	-1.61104E-001	2.26471E-006	0.00000E+000	-1.61011E-001	0.00000E+000	9	...........	1488.69
	840	12.0123	-1.60103E-001	2.27801E-006	0.00000E+000	-1.60011E-001	0.00000E+000	9	...........	1488.69
	841	12.0266	-1.59101E-001	2.26768E-006	0.00000E+000	-1.59010E-001	0.00000E+000	9	...........	1488.69
	842	12.0409	-1.58102E-001	2.29362E-006	0.00000E+000	-1.58010E-001	0.00000E+000	9	...........	1488.69
	843	12.0551	-1.57102E-001	2.28012E-006	0.00000E+000	-1.57010E-001	0.00000E+000	9	...........	1488.69
	844	12.0694	-1.56102E-001	2.29069E-006	0.00000E+000	-1.56010E-001	0.00000E+000	9	...........	1488.69
	845	12.0837	-1.55101E-001	2.30412E-006	0.00000E+000	-1.55009E-001	0.00000E+000	9	...........	1488.69
	846	12.098	-1.54101E-001	2.30455E-006	0.00000E+000	-1.54009E-001	0.00000E+000	9	...........	1488.69
	847	12.1123	-1.53101E-001	2.31180E-006	0.00000E+000	-1.53009E-001	0.00000E+000	9	...........	1488.69
	848	12.1266	-1.52099E-001	2.32191E-006	0.00000E+000	-1.52009E-001	0.00000E+000	9	...........	1488.69
	849	12.1408	-1.51100E-001	2.32390E-006	0.00000E+000	-1.51008E-001	0.00000E+000	9	...........	1488.69
	850	12.1551	-1.50100E-001	2.33283E-006	0.00000E+000	-1.50008E-001	0.00000E+000	9	...........	1488.69
	851	12.1694	-1.49099E-001	2.33740E-006	0.00000E+000	-1.49008E-001	0.00000E+000	9	...........	1488.69
	852	12.1837	-1.48100E-001	2.34418E-006	0.00000E+000	-1.48008E-001	0.00000E+000	9	...........	1488.69
	853	12.198	-1.47099E-001	2.34356E-006	0.00000E+000	-1.47007E-001	0.00000E+000	9	...........	1488.69
	854	12.2123	-1.46098E-001	2.34087E-006	0.00000E+000	-1.46007E-001	0.00000E+000	9	...........	1488.69
	855	12.2265	-1.45099E-001	2.35136E-006	0.00000E+000	-1.45007E-001	0.00000E+000	9	...........	1488.69
	856	12.2408	-1.44098E-001	2.34563E-006	0.00000E+000	-1.44006E-001	0.00000E+000	9	...........	1488.69
	857	12.2551	-1.43099E-001	2.34934E-006	0.00000E+000	-1.43006E-001	0.00000E+000	9	...........	1488.69
	858	12.2694	-1.42098E-001	2.34223E-006	0.00000E+000	-1.42006E-001	0.00000E+000	9	...........	1488.69
	859	12.2837	-1.41096E-001	2.36241E-006	0.00000E+000	-1.41006E-001	0.00000E+000	9	...........	1488.69
	860	12.298	-1.40096E-001	2.35874E-006	0.00000E+000	-1.40005E-001	0.00000E+000	9	...........	1488.69
	861	12.3122	-1.39096E-001	2.35394E-006	0.00000E+000	-1.39005E-001	0.00000E+000	9	...........	1488.69
	862	12.3265	-1.38094E-001	2.35686E-006	0.00000E+000	-1.38005E-001	0.00000E+000	9	...........	1488.69
	863	12.3408	-1.37094E-001	2.36287E-006	0.00000E+000	-1.37005E-001	0.00000E+000	9	...........	1488.69
	864	12.3551	-1.36105E-001	2.34063E-006	0.00000E+000	-1.36017E-001	0.00000E+000	9	...........	1488.69
	865	12.3694	-1.35107E-001	2.36498E-006	0.00000E+000	-1.35017E-001	0.00000E+000	9	...........	1488.69
	866	12.3837	-1.34105E-001	2.37454E-006	0.00000E+000	-1.34016E-001	0.00000E+000	9	...........	1488.69
	867	12.3979	-1.33104E-001	2.37395E-006	0.00000E+000	-1.33016E-001	0.00000E+000	9	...........	1488.69
	868	12.4122	-1.32105E-001	2.36638E-006	0.00000E+000	-1.32016E-001	0.00000E+000	9	...........	1488.69
	869	12.4265	-1.31105E-001	2.37278E-006	0.00000E+000	-1.31015E-001	0.00000E+000	9	...........	1488.69
	870	12.4408	-1.30105E-001	2.38515E-006	0.00000E+000	-1.30015E-001	0.00000E+000	9	...........	1488.69
	871	12.4551	-1.29106E-001	2.37633E-006	0.00000E+000	-1.29015E-001	0.00000E+000	9	...........	1488.69
	872	12.4694	-1.28103E-001	2.38074E-006	0.00000E+000	-1.28015E-001	0.00000E+000	9	...........	1488.69
	873	12.4836	-1.27101E-001	2.38496E-006	0.00000E+000	-1.27014E-001	0.00000E+000	9	...........	1488.69
	874	12.4979	-1.26101E-001	2.38737E-006	0.00000E+000	-1.26014E-001	0.00000E+000	9	...........	1488.69
	875	12.5122	-1.25100E-001	2.38460E-006	0.00000E+000	-1.25014E-001	0.00000E+000	9	...........	1488.69
	876	12.5265	-1.24101E-001	2.38390E-006	0.00000E+000	-1.24014E-001	0.00000E+000	9	...........	1488.69
	877	12.5408	-1.23101E-001	2.39459E-006	0.00000E+000	-1.23013E-001	0.00000E+000	9	...........	1488.69
	878	12.5551	-1.22101E-001	2.39007E-006	0.00000E+000	-1.22013E-001	0.00000E+000	9	...........	1488.69
	879	12.5693	-1.21100E-001	2.38047E-006	0.00000E+000	-1.21013E-001	0.00000E+000	9	...........	1488.69
	880	12.5836	-1.20097E-001	2.39506E-006	0.00000E+000	-1.20013E-001	0.00000E+000	9	...........	1488.69
	881	12.5979	-1.19096E-001	2.38792E-006	0.00000E+000	-1.19012E-001	0.00000E+000	9	...........	1488.69
	882	12.6122	-1.18097E-001	2.38039E-006	0.00000E+000	-1.18012E-001	0.00000E+000	9	...........	1488.69
	883	12.6265	-1.17098E-001	2.38585E-006	0.00000E+000	-1.17012E-001	0.00000E+000	9	...........	1488.69
	884	12.6408	-1.16099E-001	2.39588E-006	0.00000E+000	-1.16011E-001	0.00000E+000	9	...........	1488.69
	885	12.655	-1.15097E-001	2.39112E-006	0.00000E+000	-1.15011E-001	0.00000E+000	9	...........	1488.69
	886	12.6693	-1.14096E-001	2.38656E-006	0.00000E+000	-1.14011E-001	0.00000E+000	9	...........	1488.69
	887	12.6836	-1.13095E-001	2.39124E-006	0.00000E+000	-1.13011E-001	0.00000E+000	9	...........	1488.69
	888	12.6979	-1.12098E-001	2.39409E-006	0.00000E+000	-1.12010E-001	0.00000E+000	9	...........	1488.69
	889	12.7122	-1.11095E-001	2.39206E-006	0.00000E+000	-1.11010E-001	0.00000E+000	9	...........	1488.69
	890	12.7265	-1.10095E-001	2.39533E-006	0.00000E+000	-1.10010E-001	0.00000E+000	9	...........	1488.69
	891	12.7407	-1.09096E-001	2.40142E-006	0.00000E+000	-1.09010E-001	0.00000E+000	9	...........	1488.69
	892	12.755	-1.08093E-001	2.40349E-006	0.00000E+000	-1.08009E-001	0.00000E+000	9	...........	1488.69
	893	12.7693	-1.07105E-001	2.37278E-006	0.00000E+000	-1.07022E-001	0.00000E+000	9	...........	1488.69
	894	12.7836	-1.06108E-001	2.39713E-006	0.00000E+000	-1.06021E-001	0.00000E+000	9	...........	1488.69
	895	12.7979	-1.05108E-001	2.40657E-006	0.00000E+000	-1.05021E-001	0.00000E+000	9	...........	1488.69
	896	12.8122	-1.04109E-001	2.40033E-006	0.00000E+000	-1.04021E-001	0.00000E+000	9	...........	1488.69
	897	12.8264	-1.03107E-001	2.40587E-006	0.00000E+000	-1.03020E-001	0.00000E+000	9	...........	1488.69
	898	12.8407	-1.02108E-001	2.40556E-006	0.00000E+000	-1.02020E-001	0.00000E+000	9	...........	1488.69
	899	12.855	-1.01105E-001	2.41874E-006	0.00000E+000	-1.01020E-001	0.00000E+000	9	...........	1488.69
	900	12.8693	-1.00103E-001	2.40208E-006	0.00000E+000	-1.00020E-001	0.00000E+000	9	...........	1488.69
	901	12.8836	-9.91076E-002	2.41394E-006	0.00000E+000	-9.90194E-002	0.00000E+000	9	...........	1488.69
	902	12.8979	-9.81073E-002	2.41086E-006	0.00000E+000	-9.80191E-002	0.00000E+000	9	...........	1488.69
	903	12.9121	-9.71066E-002	2.41574E-006	0.00000E+000	-9.70189E-002	0.00000E+000	9	...........	1488.69
	904	12.9264	-9.61046E-002	2.42288E-006	0.00000E+000	-9.60186E-002	0.00000E+000	9	...........	1488.69
	905	12.9407	-9.51035E-002	2.41820E-006	0.00000E+000	-9.50183E-002	0.00000E+000	9	...........	1488.69
	906	12.955	-9.41031E-002	2.43482E-006	0.00000E+000	-9.40181E-002	0.00000E+000	9	...........	1488.69
	907	12.9693	-9.31026E-002	2.41488E-006	0.00000E+000	-9.30178E-002	0.00000E+000	9	...........	1488.69
	908	12.9836	-9.21022E-002	2.42311E-006	0.00000E+000	-9.20175E-002	0.00000E+000	9	...........	1488.69
	909	12.9978	-9.11016E-002	2.42620E-006	0.00000E+000	-9.10173E-002	0.00000E+000	9	...........	1488.69
	910	13.0121	-9.00997E-002	2.43388E-006	0.00000E+000	-9.00170E-002	0.00000E+000	9	...........	1488.69
	911	13.0264	-8.91006E-002	2.42030E-006	0.00000E+000	-8.90167E-002	0.00000E+000	9	...........	1488.69
	912	13.0407	-8.80992E-002	2.44055E-006	0.00000E+000	-8.80165E-002	0.00000E+000	9	...........	1488.69
	913	13.055	-8.70993E-002	2.42222E-006	0.00000E+000	-8.70162E-002	0.00000E+000	9	...........	1488.69
	914	13.0693	-8.61001E-002	2.42370E-006	0.00000E+000	-8.60159E-002	0.00000E+000	9	...........	1488.69
	915	13.0835	-8.51001E-002	2.44141E-006	0.00000E+000	-8.50157E-002	0.00000E+000	9	...........	1488.69
	916	13.0978	-8.40971E-002	2.43720E-006	0.00000E+000	-8.40154E-002	0.00000E+000	9	...........	1488.69
	917	13.1121	-8.30958E-002	2.44059E-006	0.00000E+000	-8.30151E-002	0.00000E+000	9	...........	1488.69
	918	13.1264	-8.20964E-002	2.43915E-006	0.00000E+000	-8.20149E-002	0.00000E+000	9	...........	1488.69
	919	13.1407	-8.10975E-002	2.44434E-006	0.00000E+000	-8.10146E-002	0.00000E+000	9	...........	1488.69
	920	13.155	-8.00973E-002	2.44200E-006	0.00000E+000	-8.00143E-002	0.00000E+000	9	...........	1488.69
	921	13.1692	-7.91087E-002	2.42027E-006	0.00000E+000	-7.90266E-002	0.00000E+000	9	...........	1488.69
	922	13.1835	-7.81094E-002	2.44820E-006	0.00000E+000	-7.80263E-002	0.00000E+000	9	...........	1488.69
	923	13.1978	-7.71064E-002	2.44953E-006	0.00000E+000	-7.70260E-002	0.00000E+000	9	...........	1488.69
	924	13.2121	-7.61090E-002	2.45113E-006	0.00000E+000	-7.60258E-002	0.00000E+000	9	...........	1488.69
	925	13.2264	-7.51059E-002	2.45788E-006	0.00000E+000	-7.50255E-002	0.00000E+000	9	...........	1488.69
	926	13.2407	-7.41077E-002	2.45608E-006	0.00000E+000	-7.40252E-002	0.00000E+000	9	...........	1488.69
	927	13.2549	-7.31050E-002	2.45979E-006	0.00000E+000	-7.30250E-002	0.00000E+000	9	...........	1488.69
	928	13.2692	-7.21064E-002	2.45651E-006	0.00000E+000	-7.20247E-002	0.00000E+000	9	...........	1488.69
	929	13.2835	-7.11076E-002	2.46330E-006	0.00000E+000	-7.10244E-002	0.00000E+000	9	...........	1488.69
	930	13.2978	-7.01060E-002	2.46505E-006	0.00000E+000	-7.00242E-002	0.00000E+000	9	...........	1488.69
	931	13.3121	-6.91037E-002	2.46381E-006	0.00000E+000	-6.90239E-002	0.00000E+000	9	...........	1488.69
	932	13.3264	-6.81028E-002	2.47590E-006	0.00000E+000	-6.80236E-002	0.00000E+000	9	...........	1488.69
	933	13.3406	-6.71071E-002	2.47664E-006	0.00000E+000	-6.70234E-002	0.00000E+000	9	...........	1488.69
	934	13.3549	-6.61053E-002	2.47457E-006	0.00000E+000	-6.60231E-002	0.00000E+000	9	...........	1488.69
	935	13.3692	-6.51038E-002	2.46845E-006	0.00000E+000	-6.50228E-002	0.00000E+000	9	...........	1488.69
	936	13.3835	-6.41019E-002	2.48507E-006	0.00000E+000	-6.40226E-002	0.00000E+000	9	...........	1488.69
	937	13.3978	-6.31015E-002	2.48417E-006	0.00000E+000	-6.30223E-002	0.00000E+000	9	...........	1488.69
	938	13.4121	-6.21012E-002	2.48339E-006	0.00000E+000	-6.20220E-002	0.00000E+000	9	...........	1488.69
	939	13.4263	-6.11006E-002	2.47914E-006	0.00000E+000	-6.10218E-002	0.00000E+000	9	...........	1488.69
	940	13.4406	-6.01010E-002	2.48655E-006	0.00000E+000	-6.00215E-002	0.00000E+000	9	...........	1488.69
	941	13.4549	-5.90997E-002	2.49057E-006	0.00000E+000	-5.90212E-002	0.00000E+000	9	...........	1488.69
	942	13.4692	-5.81003E-002	2.49490E-006	0.00000E+000	-5.80210E-002	0.00000E+000	9	...........	1488.69
	943	13.4835	-5.70986E-002	2.50064E-006	0.00000E+000	-5.70207E-002	0.00000E+000	9	...........	1488.69
	944	13.4978	-5.60978E-002	2.50352E-006	0.00000E+000	-5.60204E-002	0.00000E+000	9	...........	1488.69
	945	13.512	-5.50980E-002	2.49416E-006	0.00000E+000	-5.50201E-002	0.00000E+000	9	...........	1488.69
	946	13.5263	-5.40985E-002	2.51027E-006	0.00000E+000	-5.40199E-002	0.00000E+000	9	...........	1488.69
	947	13.5406	-5.30983E-002	2.50824E-006	0.00000E+000	-5.30196E-002	0.00000E+000	9	...........	1488.69
	948	13.5549	-5.20968E-002	2.51289E-006	0.00000E+000	-5.20194E-002	0.00000E+000	9	...........	1488.69
	949	13.5692	-5.10953E-002	2.51437E-006	0.00000E+000	-5.10191E-002	0.00000E+000	9	...........	1488.69
	950	13.5835	-5.01049E-002	2.49962E-006	0.00000E+000	-5.00313E-002	0.00000E+000	9	...........	1488.69
	951	13.5977	-4.91059E-002	2.51987E-006	0.00000E+000	-4.90310E-002	0.00000E+000	9	...........	1488.69
	952	13.612	-4.81092E-002	2.51917E-006	0.00000E+000	-4.80308E-002	0.00000E+000	9	...........	1488.69
	953	13.6263	-4.71090E-002	2.52709E-006	0.00000E+000	-4.70305E-002	0.00000E+000	9	...........	1488.69
	954	13.6406	-4.61063E-002	2.53669E-006	0.00000E+000	-4.60302E-002	0.00000E+000	9	...........	1488.69
	955	13.6549	-4.51055E-002	2.53942E-006	0.00000E+000	-4.50300E-002	0.00000E+000	9	...........	1488.69
	956	13.6692	-4.41038E-002	2.53298E-006	0.00000E+000	-4.40297E-002	0.00000E+000	9	...........	1488.69
	957	13.6834	-4.31029E-002	2.54547E-006	0.00000E+000	-4.30294E-002	0.00000E+000	9	...........	1488.69
	958	13.6977	-4.21022E-002	2.54707E-006	0.00000E+000	-4.20292E-002	0.00000E+000	9	...........	1488.69
	959	13.712	-4.11005E-002	2.54437E-006	0.00000E+000	-4.10289E-002	0.00000E+000	9	...........	1488.69
	960	13.7263	-4.01004E-002	2.54824E-006	0.00000E+000	-4.00286E-002	0.00000E+000	9	...........	1488.69
	961	13.7406	-3.91011E-002	2.55257E-006	0.00000E+000	-3.90284E-002	0.00000E+000	9	...........	1488.69
	962	13.7549	-3.80977E-002	2.55655E-006	0.00000E+000	-3.80281E-002	0.00000E+000	9	...........	1488.69
	963	13.7691	-3.70974E-002	2.55358E-006	0.00000E+000	-3.70278E-002	0.00000E+000	9	...........	1488.69
	964	13.7834	-3.60957E-002	2.56092E-006	0.00000E+000	-3.60276E-002	0.00000E+000	9	...........	1488.69
	965	13.7977	-3.50994E-002	2.56209E-006	0.00000E+000	-3.50273E-002	0.00000E+000	9	...........	1488.69
	966	13.812	-3.40966E-002	2.57243E-006	0.00000E+000	-3.40270E-002	0.00000E+000	9	...........	1488.69
	967	13.8263	-3.30952E-002	2.56704E-006	0.00000E+000	-3.30268E-002	0.00000E+000	9	...........	1488.69
	968	13.8406	-3.20937E-002	2.57812E-006	0.00000E+000	-3.20265E-002	0.00000E+000	9	...........	1488.69
	969	13.8548	-3.10925E-002	2.58120E-006	0.00000E+000	-3.10262E-002	0.00000E+000	9	...........	1488.69
	970	13.8691	-3.00932E-002	2.57878E-006	0.00000E+000	-3.00260E-002	0.00000E+000	9	...........	1488.69
	971	13.8834	-2.90923E-002	2.58366E-006	0.00000E+000	-2.90257E-002	0.00000E+000	9	...........	1488.69
	972	13.8977	-2.80929E-002	2.59498E-006	0.00000E+000	-2.80254E-002	0.00000E+000	9	...........	1488.69
	973	13.912	-2.70906E-002	2.59388E-006	0.00000E+000	-2.70252E-002	0.00000E+000	9	...........	1488.69
	974	13.9263	-2.60933E-002	2.61355E-006	0.00000E+000	-2.60249E-002	0.00000E+000	9	...........	1488.69
	975	13.9405	-2.50895E-002	2.61811E-006	0.00000E+000	-2.50246E-002	0.00000E+000	9	...........	1488.69
	976	13.9548	-2.40882E-002	2.62373E-006	0.00000E+000	-2.40244E-002	0.00000E+000	9	...........	1488.69
	977	13.9691	-2.30910E-002	2.61507E-006	0.00000E+000	-2.30241E-002	0.00000E+000	9	...........	1488.69
	978	13.9834	-2.20912E-002	2.62143E-006	0.00000E+000	-2.20238E-002	0.00000E+000	9	...........	1488.69
	979	13.9977	-2.11018E-002	2.61936E-006	0.00000E+000	-2.10361E-002	0.00000E+000	9	...........	1488.69
	980	14.012	-2.01015E-002	2.63122E-006	0.00000E+000	-2.00358E-002	0.00000E+000	9	...........	1488.69
	981	14.0262	-1.90982E-002	2.62986E-006	0.00000E+000	-1.90355E-002	0.00000E+000	9	...........	1488.69
	982	14.0405	-1.80970E-002	2.64293E-006	0.00000E+000	-1.80353E-002	0.00000E+000	9	...........	1488.69
	983	14.0548	-1.70986E-002	2.64995E-006	0.00000E+000	-1.70350E-002	0.00000E+000	9	...........	1488.69
	984	14.0691	-1.60988E-002	2.64414E-006	0.00000E+000	-1.60347E-002	0.00000E+000	9	...........	1488.69
	985	14.0834	-1.50978E-002	2.66263E-006	0.00000E+000	-1.50345E-002	0.00000E+000	9	...........	1488.69
	986	14.0977	-1.40952E-002	2.66595E-006	0.00000E+000	-1.40342E-002	0.00000E+000	9	...........	1488.69
	987	14.1119	-1.30967E-002	2.67336E-006	0.00000E+000	-1.30339E-002	0.00000E+000	9	...........	1488.69
	988	14.1262	-1.20954E-002	2.68167E-006	0.00000E+000	-1.20337E-002	0.00000E+000	9	...........	1488.69
	989	14.1405	-1.10924E-002	2.68147E-006	0.00000E+000	-1.10334E-002	0.00000E+000	9	...........	1488.69
	990	14.1548	-1.00937E-002	2.70044E-006	0.00000E+000	-1.00331E-002	0.00000E+000	9	...........	1488.69
	991	14.1691	-9.09234E-003	2.70001E-006	0.00000E+000	-9.03286E-003	0.00000E+000	9	...........	1488.69
	992	14.1834	-8.09334E-003	2.70453E-006	0.00000E+000	-8.03259E-003	0.00000E+000	9	...........	1488.69
	993	14.1976	-7.09336E-003	2.71624E-006	0.00000E+000	-7.03233E-003	0.00000E+000	9	...........	1488.69
	994	14.2119	-6.09350E-003	2.71908E-006	0.00000E+000	-6.03206E-003	0.00000E+000	9	...........	1488.69
	995	14.2262	-5.08868E-003	2.73563E-006	0.00000E+000	-5.03179E-003	0.00000E+000	9	...........	1488.69
	996	14.2405	-4.08978E-003	2.74273E-006	0.00000E+000	-4.03152E-003	0.00000E+000	9	...........	1488.69
	997	14.2548	-3.08973E-003	2.73965E-006	0.00000E+000	-3.03125E-003	0.00000E+000	9	...........	1488.69
	998	14.2691	-2.08919E-003	2.74643E-006	0.00000E+000	-2.03099E-003	0.00000E+000	9	...........	1488.69
	999	14.2833	-1.08909E-003	2.75884E-006	0.00000E+000	-1.03072E-003	0.00000E+000	9	...........	1488.69
	1000	14.2976	-8.77153E-005	2.75432E-006	0.00000E+000	-3.04505E-005	0.00000E+000	9	...........	1488.69
	1001	14.3119	-1.05940E-003	-3.07034E-007	0.00000E+000	-1.03072E-003	0.00000E+000	9	...........	1488.69
	1002	14.3262	-2.05998E-003	-4.33951E-007	0.00000E+000	-2.03099E-003	0.00000E+000	9	...........	1488.69
	1003	14.3405	-3.06109E-003	-5.16937E-007	0.00000E+000	-3.03125E-003	0.00000E+000	9	...........	1488.69
	1004	14.3548	-4.06053E-003	-5.66643E-007	0.00000E+000	-4.03152E-003	0.00000E+000	9	...........	1488.69
	1005	14.369	-5.05859E-003	-6.16349E-007	0.00000E+000	-5.03179E-003	0.00000E+000	9	...........	1488.69
	1006	14.3833	-6.06243E-003	-6.54038E-007	0.00000E+000	-6.03206E-003	0.00000E+000	9	...........	1488.69
	1007	14.3976	-7.06185E-003	-6.89503E-007	0.00000E+000	-7.03233E-003	0.00000E+000	9	...........	1488.69
	1008	14.4119	-8.06246E-003	-7.15526E-007	0.00000E+000	-8.03259E-003	0.00000E+000	9	...........	1488.69
	1009	14.4262	-9.06241E-003	-7.38935E-007	0.00000E+000	-9.03286E-003	0.00000E+000	9	...........	1488.69
	1010	14.4405	-1.00633E-002	-7.64842E-007	0.00000E+000	-1.00331E-002	0.00000E+000	9	...........	1488.69
	1011	14.4547	-1.10635E-002	-7.88992E-007	0.00000E+000	-1.10334E-002	0.00000E+000	9	...........	1488.69
	1012	14.469	-1.20647E-002	-8.08266E-007	0.00000E+000	-1.20337E-002	0.00000E+000	9	...........	1488.69
	1013	14.4833	-1.30661E-002	-8.13338E-007	0.00000E+000	-1.30339E-002	0.00000E+000	9	...........	1488.69
	1014	14.4976	-1.40670E-002	-8.38542E-007	0.00000E+000	-1.40342E-002	0.00000E+000	9	...........	1488.69
	1015	14.5119	-1.50667E-002	-8.51300E-007	0.00000E+000	-1.50345E-002	0.00000E+000	9	...........	1488.69
	1016	14.5262	-1.60681E-002	-8.72798E-007	0.00000E+000	-1.60347E-002	0.00000E+000	9	...........	1488.69
	1017	14.5404	-1.70662E-002	-8.75412E-007	0.00000E+000	-1.70350E-002	0.00000E+000	9	...........	1488.69
	1018	14.5547	-1.80657E-002	-8.89847E-007	0.00000E+000	-1.80353E-002	0.00000E+000	9	...........	1488.69
	1019	14.569	-1.90674E-002	-9.14076E-007	0.00000E+000	-1.90355E-002	0.00000E+000	9	...........	1488.69
	1020	14.5833	-2.00709E-002	-9.17587E-007	0.00000E+000	-2.00358E-002	0.00000E+000	9	...........	1488.69
	1021	14.5976	-2.10723E-002	-9.24259E-007	0.00000E+000	-2.10361E-002	0.00000E+000	9	...........	1488.69
	1022	14.6119	-2.20621E-002	-9.27302E-007	0.00000E+000	-2.20238E-002	0.00000E+000	9	...........	1488.69
	1023	14.6261	-2.30601E-002	-9.65810E-007	0.00000E+000	-2.30241E-002	0.00000E+000	9	...........	1488.69
	1024	14.6404	-2.40611E-002	-9.61792E-007	0.00000E+000	-2.40244E-002	0.00000E+000	9	...........	1488.69
	1025	14.6547	-2.50611E-002	-9.74901E-007	0.00000E+000	-2.50246E-002	0.00000E+000	9	...........	1488.69
	1026	14.669	-2.60637E-002	-9.89220E-007	0.00000E+000	-2.60249E-002	0.00000E+000	9	...........	1488.69
	1027	14.6833	-2.70648E-002	-9.92146E-007	0.00000E+000	-2.70252E-002	0.00000E+000	9	...........	1488.69
	1028	14.6976	-2.80640E-002	-9.98700E-007	0.00000E+000	-2.80254E-002	0.00000E+000	9	...........	1488.69
	1029	14.7118	-2.90656E-002	-1.02952E-006	0.00000E+000	-2.90257E-002	0.00000E+000	9	...........	1488.69
	1030	14.7261	-3.00642E-002	-1.01911E-006	0.00000E+000	-3.00260E-002	0.00000E+000	9	...........	1488.69
	1031	14.7404	-3.10649E-002	-1.03729E-006	0.00000E+000	-3.10262E-002	0.00000E+000	9	...........	1488.69
	1032	14.7547	-3.20646E-002	-1.04489E-006	0.00000E+000	-3.20265E-002	0.00000E+000	9	...........	1488.69
	1033	14.769	-3.30684E-002	-1.06401E-006	0.00000E+000	-3.30268E-002	0.00000E+000	9	...........	1488.69
	1034	14.7833	-3.40683E-002	-1.06093E-006	0.00000E+000	-3.40270E-002	0.00000E+000	9	...........	1488.69
	1035	14.7975	-3.50699E-002	-1.07767E-006	0.00000E+000	-3.50273E-002	0.00000E+000	9	...........	1488.69
	1036	14.8118	-3.60658E-002	-1.06830E-006	0.00000E+000	-3.60276E-002	0.00000E+000	9	...........	1488.69
	1037	14.8261	-3.70681E-002	-1.08352E-006	0.00000E+000	-3.70278E-002	0.00000E+000	9	...........	1488.69
	1038	14.8404	-3.80682E-002	-1.09370E-006	0.00000E+000	-3.80281E-002	0.00000E+000	9	...........	1488.69
	1039	14.8547	-3.90706E-002	-1.09429E-006	0.00000E+000	-3.90284E-002	0.00000E+000	9	...........	1488.69
	1040	14.869	-4.00721E-002	-1.11887E-006	0.00000E+000	-4.00286E-002	0.00000E+000	9	...........	1488.69
	1041	14.8832	-4.10713E-002	-1.11372E-006	0.00000E+000	-4.10289E-002	0.00000E+000	9	...........	1488.69
	1042	14.8975	-4.20726E-002	-1.13116E-006	0.00000E+000	-4.20292E-002	0.00000E+000	9	...........	1488.69
	1043	14.9118	-4.30713E-002	-1.12823E-006	0.00000E+000	-4.30294E-002	0.00000E+000	9	...........	1488.69
	1044	14.9261	-4.40720E-002	-1.14142E-006	0.00000E+000	-4.40297E-002	0.00000E+000	9	...........	1488.69
	1045	14.9404	-4.50749E-002	-1.14298E-006	0.00000E+000	-4.50300E-002	0.00000E+000	9	...........	1488.69
	1046	14.9547	-4.60743E-002	-1.15043E-006	0.00000E+000	-4.60302E-002	0.00000E+000	9	...........	1488.69
	1047	14.9689	-4.70760E-002	-1.16346E-006	0.00000E+000	-4.70305E-002	0.00000E+000	9	...........	1488.69
	1048	14.9832	-4.80761E-002	-1.15488E-006	0.00000E+000	-4.80308E-002	0.00000E+000	9	...........	1488.69
	1049	14.9975	-4.90741E-002	-1.16697E-006	0.00000E+000	-4.90310E-002	0.00000E+000	9	...........	1488.69
	1050	15.0118	-5.00735E-002	-1.18402E-006	0.00000E+000	-5.00313E-002	0.00000E+000	9	...........	1488.69
	1051	15.0261	-5.10625E-002	-1.16799E-006	0.00000E+000	-5.10191E-002	0.00000E+000	9	...........	1488.69
	1052	15.0404	-5.20652E-002	-1.19019E-006	0.00000E+000	-5.20194E-002	0.00000E+000	9	...........	1488.69
	1053	15.0546	-5.30666E-002	-1.20622E-006	0.00000E+000	-5.30196E-002	0.00000E+000	9	...........	1488.69
	1054	15.0689	-5.40686E-002	-1.22823E-006	0.00000E+000	-5.40199E-002	0.00000E+000	9	...........	1488.69
	1055	15.0832	-5.50672E-002	-1.21695E-006	0.00000E+000	-5.50201E-002	0.00000E+000	9	...........	1488.69
	1056	15.0975	-5.60669E-002	-1.22558E-006	0.00000E+000	-5.60204E-002	0.00000E+000	9	...........	1488.69
	1057	15.1118	-5.70674E-002	-1.23989E-006	0.00000E+000	-5.70207E-002	0.00000E+000	9	...........	1488.69
	1058	15.1261	-5.80694E-002	-1.24438E-006	0.00000E+000	-5.80210E-002	0.00000E+000	9	...........	1488.69
	1059	15.1403	-5.90674E-002	-1.23939E-006	0.00000E+000	-5.90212E-002	0.00000E+000	9	...........	1488.69
	1060	15.1546	-6.00701E-002	-1.25172E-006	0.00000E+000	-6.00215E-002	0.00000E+000	9	...........	1488.69
	1061	15.1689	-6.10703E-002	-1.25745E-006	0.00000E+000	-6.10218E-002	0.00000E+000	9	...........	1488.69
	1062	15.1832	-6.20725E-002	-1.25640E-006	0.00000E+000	-6.20220E-002	0.00000E+000	9	...........	1488.69
	1063	15.1975	-6.30726E-002	-1.27146E-006	0.00000E+000	-6.30223E-002	0.00000E+000	9	...........	1488.69
	1064	15.2118	-6.40728E-002	-1.27193E-006	0.00000E+000	-6.40226E-002	0.00000E+000	9	...........	1488.69
	1065	15.226	-6.50738E-002	-1.27598E-006	0.00000E+000	-6.50228E-002	0.00000E+000	9	...........	1488.69
	1066	15.2403	-6.60735E-002	-1.28305E-006	0.00000E+000	-6.60231E-002	0.00000E+000	9	...........	1488.69
	1067	15.2546	-6.70753E-002	-1.27946E-006	0.00000E+000	-6.70234E-002	0.00000E+000	9	...........	1488.69
	1068	15.2689	-6.80728E-002	-1.29143E-006	0.00000E+000	-6.80236E-002	0.00000E+000	9	...........	1488.69
	1069	15.2832	-6.90730E-002	-1.30177E-006	0.00000E+000	-6.90239E-002	0.00000E+000	9	...........	1488.69
	1070	15.2975	-7.00768E-002	-1.30228E-006	0.00000E+000	-7.00242E-002	0.00000E+000	9	...........	1488.69
	1071	15.3117	-7.10773E-002	-1.31578E-006	0.00000E+000	-7.10244E-002	0.00000E+000	9	...........	1488.69
	1072	15.326	-7.20764E-002	-1.31558E-006	0.00000E+000	-7.20247E-002	0.00000E+000	9	...........	1488.69
	1073	15.3403	-7.30776E-002	-1.32268E-006	0.00000E+000	-7.30250E-002	0.00000E+000	9	...........	1488.69
	1074	15.3546	-7.40790E-002	-1.32709E-006	0.00000E+000	-7.40252E-002	0.00000E+000	9	...........	1488.69
	1075	15.3689	-7.50771E-002	-1.33970E-006	0.00000E+000	-7.50255E-002	0.00000E+000	9	...........	1488.69
	1076	15.3832	-7.60780E-002	-1.33205E-006	0.00000E+000	-7.60258E-002	0.00000E+000	9	...........	1488.69
	1077	15.3974	-7.70769E-002	-1.34559E-006	0.00000E+000	-7.70260E-002	0.00000E+000	9	...........	1488.69
	1078	15.4117	-7.80812E-002	-1.35175E-006	0.00000E+000	-7.80263E-002	0.00000E+000	9	...........	1488.69
	1079	15.426	-7.90803E-002	-1.35655E-006	0.00000E+000	-7.90266E-002	0.00000E+000	9	...........	1488.69
	1080	15.4403	-8.00684E-002	-1.34617E-006	0.00000E+000	-8.00143E-002	0.00000E+000	9	...........	1488.69
	1081	15.4546	-8.10681E-002	-1.36658E-006	0.00000E+000	-8.10146E-002	0.00000E+000	9	...........	1488.69
	1082	15.4689	-8.20664E-002	-1.38195E-006	0.00000E+000	-8.20149E-002	0.00000E+000	9	...........	1488.69
	1083	15.4831	-8.30658E-002	-1.37579E-006	0.00000E+000	-8.30151E-002	0.00000E+000	9	...........	1488.69
	1084	15.4974	-8.40675E-002	-1.38585E-006	0.00000E+000	-8.40154E-002	0.00000E+000	9	...........	1488.69
	1085	15.5117	-8.50692E-002	-1.39424E-006	0.00000E+000	-8.50157E-002	0.00000E+000	9	...........	1488.69
	1086	15.526	-8.60683E-002	-1.40208E-006	0.00000E+000	-8.60159E-002	0.00000E+000	9	...........	1488.69
	1087	15.5403	-8.70689E-002	-1.39814E-006	0.00000E+000	-8.70162E-002	0.00000E+000	9	...........	1488.69
	1088	15.5546	-8.80692E-002	-1.40134E-006	0.00000E+000	-8.80165E-002	0.00000E+000	9	...........	1488.69
	1089	15.5688	-8.90705E-002	-1.41738E-006	0.00000E+000	-8.90167E-002	0.00000E+000	9	...........	1488.69
	1090	15.5831	-9.00704E-002	-1.41987E-006	0.00000E+000	-9.00170E-002	0.00000E+000	9	...........	1488.69
	1091	15.5974	-9.10695E-002	-1.42748E-006	0.00000E+000	-9.10173E-002	0.00000E+000	9	...........	1488.69
	1092	15.6117	-9.20718E-002	-1.43056E-006	0.00000E+000	-9.20175E-002	0.00000E+000	9	...........	1488.69
	1093	15.626	-9.30709E-002	-1.43630E-006	0.00000E+000	-9.30178E-002	0.00000E+000	9	...........	1488.69
	1094	15.6403	-9.40707E-002	-1.44102E-006	0.00000E+000	-9.40181E-002	0.00000E+000	9	...........	1488.69
	1095	15.6545	-9.50713E-002	-1.44469E-006	0.00000E+000	-9.50183E-002	0.00000E+000	9	...........	1488.69
	1096	15.6688	-9.60730E-002	-1.45881E-006	0.00000E+000	-9.60186E-002	0.00000E+000	9	...........	1488.69
	1097	15.6831	-9.70739E-002	-1.46076E-006	0.00000E+000	-9.70189E-002	0.00000E+000	9	...........	1488.69
	1098	15.6974	-9.80748E-002	-1.46076E-006	0.00000E+000	-9.80191E-002	0.00000E+000	9	...........	1488.69
	1099	15.7117	-9.90760E-002	-1.47570E-006	0.00000E+000	-9.90194E-002	0.00000E+000	9	...........	1488.69
	1100	15.726	-1.00070E-001	-1.47059E-006	0.00000E+000	-1.00020E-001	0.00000E+000	9	...........	1488.69
	1101	15.7402	-1.01073E-001	-1.48074E-006	0.00000E+000	-1.01020E-001	0.00000E+000	9	...........	1488.69
	1102	15.7545	-1.02074E-001	-1.48616E-006	0.00000E+000	-1.02020E-001	0.00000E+000	9	...........	1488.69
	1103	15.7688	-1.03076E-001	-1.49775E-006	0.00000E+000	-1.03020E-001	0.00000E+000	9	...........	1488.69
	1104	15.7831	-1.04078E-001	-1.50251E-006	0.00000E+000	-1.04021E-001	0.00000E+000	9	...........	1488.69
	1105	15.7974	-1.05075E-001	-1.49775E-006	0.00000E+000	-1.05021E-001	0.00000E+000	9	...........	1488.69
	1106	15.8117	-1.06077E-001	-1.50489E-006	0.00000E+000	-1.06021E-001	0.00000E+000	9	...........	1488.69
	1107	15.8259	-1.07074E-001	-1.51292E-006	0.00000E+000	-1.07022E-001	0.00000E+000	9	...........	1488.69
	1108	15.8402	-1.08062E-001	-1.49919E-006	0.00000E+000	-1.08009E-001	0.00000E+000	9	...........	1488.69
	1109	15.8545	-1.09065E-001	-1.53021E-006	0.00000E+000	-1.09010E-001	0.00000E+000	9	...........	1488.69
	1110	15.8688	-1.10066E-001	-1.53766E-006	0.00000E+000	-1.10010E-001	0.00000E+000	9	...........	1488.69
	1111	15.8831	-1.11066E-001	-1.53735E-006	0.00000E+000	-1.11010E-001	0.00000E+000	9	...........	1488.69
	1112	15.8974	-1.12067E-001	-1.55132E-006	0.00000E+000	-1.12010E-001	0.00000E+000	9	...........	1488.69
	1113	15.9116	-1.13065E-001	-1.56286E-006	0.00000E+000	-1.13011E-001	0.00000E+000	9	...........	1488.69
	1114	15.9259	-1.14065E-001	-1.56641E-006	0.00000E+000	-1.14011E-001	0.00000E+000	9	...........	1488.69
	1115	15.9402	-1.15068E-001	-1.56684E-006	0.00000E+000	-1.15011E-001	0.00000E+000	9	...........	1488.69
	1116	15.9545	-1.16068E-001	-1.58171E-006	0.00000E+000	-1.16011E-001	0.00000E+000	9	...........	1488.69
	1117	15.9688	-1.17070E-001	-1.59060E-006	0.00000E+000	-1.17012E-001	0.00000E+000	9	...........	1488.69
	1118	15.9831	-1.18068E-001	-1.59973E-006	0.00000E+000	-1.18012E-001	0.00000E+000	9	...........	1488.69
	1119	15.9973	-1.19069E-001	-1.59318E-006	0.00000E+000	-1.19012E-001	0.00000E+000	9	...........	1488.69
	1120	16.0116	-1.20069E-001	-1.60691E-006	0.00000E+000	-1.20013E-001	0.00000E+000	9	...........	1488.69
	1121	16.0259	-1.21072E-001	-1.61351E-006	0.00000E+000	-1.21013E-001	0.00000E+000	9	...........	1488.69
	1122	16.0402	-1.22072E-001	-1.61316E-006	0.00000E+000	-1.22013E-001	0.00000E+000	9	...........	1488.69
	1123	16.0545	-1.23071E-001	-1.61596E-006	0.00000E+000	-1.23013E-001	0.00000E+000	9	...........	1488.69
	1124	16.0688	-1.24073E-001	-1.63309E-006	0.00000E+000	-1.24014E-001	0.00000E+000	9	...........	1488.69
	1125	16.083	-1.25072E-001	-1.63017E-006	0.00000E+000	-1.25014E-001	0.00000E+000	9	...........	1488.69
	1126	16.0973	-1.26072E-001	-1.63575E-006	0.00000E+000	-1.26014E-001	0.00000E+000	9	...........	1488.69
	1127	16.1116	-1.27071E-001	-1.65038E-006	0.00000E+000	-1.27014E-001	0.00000E+000	9	...........	1488.69
	1128	16.1259	-1.28074E-001	-1.65537E-006	0.00000E+000	-1.28015E-001	0.00000E+000	9	...........	1488.69
	1129	16.1402	-1.29075E-001	-1.64889E-006	0.00000E+000	-1.29015E-001	0.00000E+000	9	...........	1488.69
	1130	16.1545	-1.30075E-001	-1.66692E-006	0.00000E+000	-1.30015E-001	0.00000E+000	9	...........	1488.69
	1131	16.1687	-1.31075E-001	-1.67851E-006	0.00000E+000	-1.31015E-001	0.00000E+000	9	...........	1488.69
	1132	16.183	-1.32074E-001	-1.66996E-006	0.00000E+000	-1.32016E-001	0.00000E+000	9	...........	1488.69
	1133	16.1973	-1.33074E-001	-1.67784E-006	0.00000E+000	-1.33016E-001	0.00000E+000	9	...........	1488.69
	1134	16.2116	-1.34076E-001	-1.70110E-006	0.00000E+000	-1.34016E-001	0.00000E+000	9	...........	1488.69
	1135	16.2259	-1.35075E-001	-1.70137E-006	0.00000E+000	-1.35017E-001	0.00000E+000	9	...........	1488.69
	1136	16.2402	-1.36075E-001	-1.70445E-006	0.00000E+000	-1.36017E-001	0.00000E+000	9	...........	1488.69
	1137	16.2544	-1.37065E-001	-1.68978E-006	0.00000E+000	-1.37005E-001	0.00000E+000	9	...........	1488.69
	1138	16.2687	-1.38063E-001	-1.72989E-006	0.00000E+000	-1.38005E-001	0.00000E+000	9	...........	1488.69
	1139	16.283	-1.39062E-001	-1.72474E-006	0.00000E+000	-1.39005E-001	0.00000E+000	9	...........	1488.69
	1140	16.2973	-1.40065E-001	-1.74175E-006	0.00000E+000	-1.40005E-001	0.00000E+000	9	...........	1488.69
	1141	16.3116	-1.41066E-001	-1.75275E-006	0.00000E+000	-1.41006E-001	0.00000E+000	9	...........	1488.69
	1142	16.3259	-1.42068E-001	-1.75626E-006	0.00000E+000	-1.42006E-001	0.00000E+000	9	...........	1488.69
	1143	16.3401	-1.43067E-001	-1.75802E-006	0.00000E+000	-1.43006E-001	0.00000E+000	9	...........	1488.69
	1144	16.3544	-1.44067E-001	-1.76703E-006	0.00000E+000	-1.44006E-001	0.00000E+000	9	...........	1488.69
	1145	16.3687	-1.45068E-001	-1.77960E-006	0.00000E+000	-1.45007E-001	0.00000E+000	9	...........	1488.69
	1146	16.383	-1.46068E-001	-1.78034E-006	0.00000E+000	-1.46007E-001	0.00000E+000	9	...........	1488.69
	1147	16.3973	-1.47070E-001	-1.79914E-006	0.00000E+000	-1.47007E-001	0.00000E+000	9	...........	1488.69
	1148	16.4116	-1.48070E-001	-1.80609E-006	0.00000E+000	-1.48008E-001	0.00000E+000	9	...........	1488.69
	1149	16.4258	-1.49071E-001	-1.82216E-006	0.00000E+000	-1.49008E-001	0.00000E+000	9	...........	1488.69
	1150	16.4401	-1.50071E-001	-1.82833E-006	0.00000E+000	-1.50008E-001	0.00000E+000	9	...........	1488.69
	1151	16.4544	-1.51072E-001	-1.83227E-006	0.00000E+000	-1.51008E-001	0.00000E+000	9	...........	1488.69
	1152	16.4687	-1.52069E-001	-1.84077E-006	0.00000E+000	-1.52009E-001	0.00000E+000	9	...........	1488.69
	1153	16.483	-1.53072E-001	-1.84916E-006	0.00000E+000	-1.53009E-001	0.00000E+000	9	...........	1488.69
	1154	16.4973	-1.54071E-001	-1.86305E-006	0.00000E+000	-1.54009E-001	0.00000E+000	9	...........	1488.69
	1155	16.5115	-1.55073E-001	-1.86777E-006	0.00000E+000	-1.55009E-001	0.00000E+000	9	...........	1488.69
	1156	16.5258	-1.56074E-001	-1.88673E-006	0.00000E+000	-1.56010E-001	0.00000E+000	9	...........	1488.69
	1157	16.5401	-1.57071E-001	-1.88092E-006	0.00000E+000	-1.57010E-001	0.00000E+000	9	...........	1488.69
	1158	16.5544	-1.58071E-001	-1.89887E-006	0.00000E+000	-1.58010E-001	0.00000E+000	9	...........	1488.69
	1159	16.5687	-1.59070E-001	-1.91673E-006	0.00000E+000	-1.59010E-001	0.00000E+000	9	...........	1488.69
	1160	16.583	-1.60072E-001	-1.92110E-006	0.00000E+000	-1.60011E-001	0.00000E+000	9	...........	1488.69
	1161	16.5972	-1.61072E-001	-1.93503E-006	0.00000E+000	-1.61011E-001	0.00000E+000	9	...........	1488.69
	1162	16.6115	-1.62074E-001	-1.94721E-006	0.00000E+000	-1.62011E-001	0.00000E+000	9	...........	1488.69
	1163	16.6258	-1.63075E-001	-1.96074E-006	0.00000E+000	-1.63012E-001	0.00000E+000	9	...........	1488.69
	1164	16.6401	-1.64075E-001	-1.96375E-006	0.00000E+000	-1.64012E-001	0.00000E+000	9	...........	1488.69
	1165	16.6544	-1.65074E-001	-1.96734E-006	0.00000E+000	-1.65012E-001	0.00000E+000	9	...........	1488.69
	1166	16.6687	-1.66062E-001	-1.96796E-006	0.00000E+000	-1.66000E-001	0.00000E+000	9	...........	1488.69
	1167	16.6829	-1.67063E-001	-1.99332E-006	0.00000E+000	-1.67000E-001	0.00000E+000	9	...........	1488.69
	1168	16.6972	-1.68062E-001	-2.00276E-006	0.00000E+000	-1.68000E-001	0.00000E+000	9	...........	1488.69
	1169	16.7115	-1.69062E-001	-2.01634E-006	0.00000E+000	-1.69001E-001	0.00000E+000	9	...........	1488.69
	1170	16.7258	-1.70064E-001	-2.02200E-006	0.00000E+000	-1.70001E-001	0.00000E+000	9	...........	1488.69
	1171	16.7401	-1.71064E-001	-2.03390E-006	0.00000E+000	-1.71001E-001	0.00000E+000	9	...........	1488.69
	1172	16.7544	-1.72065E-001	-2.05329E-006	0.00000E+000	-1.72001E-001	0.00000E+000	9	...........	1488.69
	1173	16.7686	-1.73066E-001	-2.06960E-006	0.00000E+000	-1.73002E-001	0.00000E+000	9	...........	1488.69
	1174	16.7829	-1.74065E-001	-2.08146E-006	0.00000E+000	-1.74002E-001	0.00000E+000	9	...........	1488.69
	1175	16.7972	-1.75066E-001	-2.09199E-006	0.00000E+000	-1.75002E-001	0.00000E+000	9	...........	1488.69
	1176	16.8115	-1.76068E-001	-2.10959E-006	0.00000E+000	-1.76002E-001	0.00000E+000	9	...........	1488.69
	1177	16.8258	-1.77066E-001	-2.12223E-006	0.00000E+000	-1.77003E-001	0.00000E+000	9	...........	1488.69
	1178	16.84	-1.78069E-001	-2.12906E-006	0.00000E+000	-1.78003E-001	0.00000E+000	9	...........	1488.69
	1179	16.8543	-1.79069E-001	-2.13596E-006	0.00000E+000	-1.79003E-001	0.00000E+000	9	...........	1488.69
	1180	16.8686	-1.80069E-001	-2.16183E-006	0.00000E+000	-1.80004E-001	0.00000E+000	9	...........	1488.69
	1181	16.8829	-1.81071E-001	-2.16838E-006	0.00000E+000	-1.81004E-001	0.00000E+000	9	...........	1488.69
	1182	16.8972	-1.82070E-001	-2.18918E-006	0.00000E+000	-1.82004E-001	0.00000E+000	9	...........	1488.69
	1183	16.9115	-1.83070E-001	-2.21271E-006	0.00000E+000	-1.83004E-001	0.00000E+000	9	...........	1488.69
	1184	16.9258	-1.84068E-001	-2.22008E-006	0.00000E+000	-1.84005E-001	0.00000E+000	9	...........	1488.69
	1185	16.94	-1.85072E-001	-2.23506E-006	0.00000E+000	-1.85005E-001	0.00000E+000	9	...........	1488.69
	1186	16.9543	-1.86072E-001	-2.25012E-006	0.00000E+000	-1.86005E-001	0.00000E+000	9	...........	1488.69
	1187	16.9686	-1.87071E-001	-2.28079E-006	0.00000E+000	-1.87005E-001	0.00000E+000	9	...........	1488.69
	1188	16.9829	-1.88072E-001	-2.28586E-006	0.00000E+000	-1.88006E-001	0.00000E+000	9	...........	1488.69
	1189	16.9972	-1.89072E-001	-2.29686E-006	0.00000E+000	-1.89006E-001	0.00000E+000	9	...........	1488.69
	1190	17.0114	-1.90070E-001	-2.32105E-006	0.00000E+000	-1.90006E-001	0.00000E+000	9	...........	1488.69
	1191	17.0257	-1.91071E-001	-2.34973E-006	0.00000E+000	-1.91006E-001	0.00000E+000	9	...........	1488.69
	1192	17.04	-1.92071E-001	-2.35831E-006	0.00000E+000	-1.92007E-001	0.00000E+000	9	...........	1488.69
	1193	17.0543	-1.93073E-001	-2.37224E-006	0.00000E+000	-1.93007E-001	0.00000E+000	9	...........	1488.69
	1194	17.0686	-1.94062E-001	-2.38921E-006	0.00000E+000	-1.93995E-001	0.00000E+000	9	...........	1488.69
	1195	17.0829	-1.95062E-001	-2.42456E-006	0.00000E+000	-1.94995E-001	0.00000E+000	9	...........	1488.69
	1196	17.0972	-1.96062E-001	-2.44617E-006	0.00000E+000	-1.95995E-001	0.00000E+000	9	...........	1488.69
	1197	17.1114	-1.97062E-001	-2.46428E-006	0.00000E+000	-1.96996E-001	0.00000E+000	9	...........	1488.69
	1198	17.1257	-1.98062E-001	-2.48921E-006	0.00000E+000	-1.97996E-001	0.00000E+000	9	...........	1488.69
	1199	17.14	-1.99064E-001	-2.50084E-006	0.00000E+000	-1.98996E-001	0.00000E+000	9	...........	1488.69
	1200	17.1543	-2.00065E-001	-2.52678E-006	0.00000E+000	-1.99996E-001	0.00000E+000	9	...........	1488.69
CURVE4	TABLE
	Pt	T	Vf	Im	Vu	Sig	Ach	IERange	Over	Temp
	#	s	V vs. Ref.	A	V	V	V	#	bits	deg C
	1201	17.1686	-2.00079E-001	-5.96841E-007	0.00000E+000	-1.99996E-001	0.00000E+000	9	...........	1488.69
