EXPLAIN
TAG	CV
TITLE	LABEL	ECSA	Test Identifier
DATE	LABEL	20.8.2024	Date
TIME	LABEL	8:39:39	Time
NOTES	NOTES	1	Notes...
	
PSTAT	PSTAT	IFC1010-36105	Potentiostat
VINIT	POTEN	-2.00000E-001	F	A Potential (V)
VLIMIT1	POTEN	0.00000E+000	F	A Potential (V)
VLIMIT2	POTEN	-2.00000E-001	F	A Potential (V)
VFINAL	POTEN	-2.00000E-001	F	A Potential (V)
SCANRATE	QUANT	8.99998E+001	A Real Number
STEPSIZE	QUANT	1.00000E+000	Step Size (mV)
CYCLES	IQUANT	3	Cycles (#)
IMODE	SELECTOR	1	I/E Range Mode
IRANGE	QUANT	3.00000E-001	Max Current (mA)
AREA	QUANT	1.00000E+000	Sample Area (cm^2)
EQDELAY	QUANT	0.00000E+000	Equil. Time (s)
IRCOMP	SELECTOR	0	IRComp
PFCOR	QUANT	5.00000E+001	PF Corr. (ohm)
SAMPLINGMODE	SELECTOR	2	Sampling Mode
EOC	QUANT	-0.1790659	Open Circuit (V)
ELECTRODETYPE	SELECTOR	0	Electrode Type
STRIPPING	TOGGLE	F	Used for Stripping
SEQUENCER	TOGGLE	TRUE	Run as Sequence
PSTATMODEL	IQUANT	64	Pstat Model
PSTATSECTION	LABEL	IFC1010-36105	Pstat Section
PSTATSERIALNO	LABEL	36105	Pstat Serial Number
CTRLMODE	IQUANT	1	Control Mode
ELECTROMETER	IQUANT	0	RE=0 or CS=1
IESTAB	IQUANT	2	I/E Stability
CASPEED	IQUANT	4	Control Amp Speed
CONVENTION	IQUANT	1	Current Convention
ICHRANGE	IQUANT	2	Ich Range
ICHRANGEMODE	TOGGLE	F	Ich Auto Range
ICHOFFSETENABLE	TOGGLE	F	Ich Offset Enable
ICHOFFSET	QUANT	0	Ich Offset (V)
ICHFILTER	IQUANT	3	Ich Filter
VCHRANGE	IQUANT	1	Vch Range
VCHRANGEMODE	TOGGLE	F	Vch Auto Range
VCHOFFSETENABLE	TOGGLE	F	Vch Offset Enable
VCHOFFSET	QUANT	0	Vch Offset (V)
VCHFILTER	IQUANT	3	Vch Filter
IERANGELOWERLIMIT	IQUANT	4	I/E Range Lower Limit
IERANGEMODE	TOGGLE	F	I/E AutoRange
IERANGE	IQUANT	9	I/E Range
ACHSELECT	IQUANT	0	Ach Select
ACHRANGE	IQUANT	2	Ach Range
ACHOFFSETENABLE	TOGGLE	F	Ach Offset Enable
ACHOFFSET	QUANT	0	Ach Offset (V)
ACHFILTER	IQUANT	1	Ach Filter
SENSECABLEID	IQUANT	13	Sense Cable ID
PWRCABLEID	IQUANT	13	Power Cable ID
DCCALDATE	LABEL	10/17/2023	DC Calibration Date
ACCALDATE	LABEL	6/2/2023	AC Calibration Date
FRAMEWORKVERSION	LABEL	7.10.3	Framework Version
INSTRUMENTVERSION	LABEL	4.91	Instrument Version
COMMVERSION	LABEL	3.10	Communications Version
CPUPLDVERSION	LABEL	2.22	CPU PLD Version
CTRLPLDVERSION	LABEL	0.00	CTRL PLD Version
PSTATPLDVERSION	LABEL	0.00	PSTAT PLD Version
CURVE1	TABLE
	Pt	T	Vf	Im	Vu	Sig	Ach	IERange	Over	Temp
	#	s	V vs. Ref.	A	V	V	V	#	bits	deg C
	0	0.011117	-2.00080E-001	-4.14628E-007	0.00000E+000	-1.99996E-001	0.00000E+000	9	...........	1488.69
	1	0.022233	-1.99101E-001	2.09933E-006	0.00000E+000	-1.98996E-001	0.00000E+000	9	...........	1488.69
	2	0.03335	-1.98100E-001	2.23301E-006	0.00000E+000	-1.97996E-001	0.00000E+000	9	...........	1488.69
	3	0.044467	-1.97099E-001	2.32551E-006	0.00000E+000	-1.96996E-001	0.00000E+000	9	...........	1488.69
	4	0.055583	-1.96099E-001	2.39052E-006	0.00000E+000	-1.95995E-001	0.00000E+000	9	...........	1488.69
	5	0.0667	-1.95099E-001	2.44164E-006	0.00000E+000	-1.94995E-001	0.00000E+000	9	...........	1488.69
	6	0.077817	-1.94098E-001	2.50469E-006	0.00000E+000	-1.93995E-001	0.00000E+000	9	...........	1488.69
	7	0.088933	-1.93098E-001	2.51698E-006	0.00000E+000	-1.92995E-001	0.00000E+000	9	...........	1488.69
	8	0.10005	-1.92095E-001	2.56514E-006	0.00000E+000	-1.91994E-001	0.00000E+000	9	...........	1488.69
	9	0.111167	-1.91094E-001	2.58205E-006	0.00000E+000	-1.90994E-001	0.00000E+000	9	...........	1488.69
	10	0.122283	-1.90093E-001	2.61831E-006	0.00000E+000	-1.89994E-001	0.00000E+000	9	...........	1488.69
	11	0.1334	-1.89094E-001	2.63146E-006	0.00000E+000	-1.88993E-001	0.00000E+000	9	...........	1488.69
	12	0.144517	-1.88094E-001	2.64806E-006	0.00000E+000	-1.87993E-001	0.00000E+000	9	...........	1488.69
	13	0.155633	-1.87093E-001	2.66948E-006	0.00000E+000	-1.86993E-001	0.00000E+000	9	...........	1488.69
	14	0.16675	-1.86092E-001	2.68373E-006	0.00000E+000	-1.85993E-001	0.00000E+000	9	...........	1488.69
	15	0.177867	-1.85093E-001	2.71889E-006	0.00000E+000	-1.84992E-001	0.00000E+000	9	...........	1488.69
	16	0.188983	-1.84092E-001	2.71754E-006	0.00000E+000	-1.83992E-001	0.00000E+000	9	...........	1488.69
	17	0.2001	-1.83092E-001	2.73474E-006	0.00000E+000	-1.82992E-001	0.00000E+000	9	...........	1488.69
	18	0.211217	-1.82090E-001	2.73504E-006	0.00000E+000	-1.81992E-001	0.00000E+000	9	...........	1488.69
	19	0.222333	-1.81092E-001	2.76564E-006	0.00000E+000	-1.80991E-001	0.00000E+000	9	...........	1488.69
	20	0.23345	-1.80089E-001	2.76228E-006	0.00000E+000	-1.79991E-001	0.00000E+000	9	...........	1488.69
	21	0.244567	-1.79090E-001	2.77878E-006	0.00000E+000	-1.78991E-001	0.00000E+000	9	...........	1488.69
	22	0.255683	-1.78090E-001	2.78766E-006	0.00000E+000	-1.77991E-001	0.00000E+000	9	...........	1488.69
	23	0.2668	-1.77088E-001	2.78591E-006	0.00000E+000	-1.76990E-001	0.00000E+000	9	...........	1488.69
	24	0.277917	-1.76090E-001	2.81019E-006	0.00000E+000	-1.75990E-001	0.00000E+000	9	...........	1488.69
	25	0.289033	-1.75089E-001	2.80577E-006	0.00000E+000	-1.74990E-001	0.00000E+000	9	...........	1488.69
	26	0.30015	-1.74088E-001	2.82022E-006	0.00000E+000	-1.73989E-001	0.00000E+000	9	...........	1488.69
	27	0.311267	-1.73088E-001	2.82238E-006	0.00000E+000	-1.72989E-001	0.00000E+000	9	...........	1488.69
	28	0.322383	-1.72088E-001	2.83105E-006	0.00000E+000	-1.71989E-001	0.00000E+000	9	...........	1488.69
	29	0.3335	-1.71087E-001	2.84665E-006	0.00000E+000	-1.70989E-001	0.00000E+000	9	...........	1488.69
	30	0.344617	-1.70087E-001	2.84304E-006	0.00000E+000	-1.69988E-001	0.00000E+000	9	...........	1488.69
	31	0.355733	-1.69085E-001	2.85257E-006	0.00000E+000	-1.68988E-001	0.00000E+000	9	...........	1488.69
	32	0.36685	-1.68084E-001	2.83296E-006	0.00000E+000	-1.67988E-001	0.00000E+000	9	...........	1488.69
	33	0.377967	-1.67084E-001	2.86351E-006	0.00000E+000	-1.66988E-001	0.00000E+000	9	...........	1488.69
	34	0.389083	-1.66083E-001	2.85814E-006	0.00000E+000	-1.65987E-001	0.00000E+000	9	...........	1488.69
	35	0.4002	-1.65084E-001	2.88091E-006	0.00000E+000	-1.64987E-001	0.00000E+000	9	...........	1488.69
	36	0.411317	-1.64085E-001	2.86261E-006	0.00000E+000	-1.63987E-001	0.00000E+000	9	...........	1488.69
	37	0.422433	-1.63085E-001	2.87520E-006	0.00000E+000	-1.62987E-001	0.00000E+000	9	...........	1488.69
	38	0.43355	-1.62083E-001	2.87184E-006	0.00000E+000	-1.61986E-001	0.00000E+000	9	...........	1488.69
	39	0.444667	-1.61083E-001	2.88262E-006	0.00000E+000	-1.60986E-001	0.00000E+000	9	...........	1488.69
	40	0.455783	-1.60083E-001	2.88568E-006	0.00000E+000	-1.59986E-001	0.00000E+000	9	...........	1488.69
	41	0.4669	-1.59081E-001	2.88157E-006	0.00000E+000	-1.58985E-001	0.00000E+000	9	...........	1488.69
	42	0.478017	-1.58080E-001	2.89100E-006	0.00000E+000	-1.57985E-001	0.00000E+000	9	...........	1488.69
	43	0.489133	-1.57071E-001	2.90259E-006	0.00000E+000	-1.56972E-001	0.00000E+000	9	...........	1488.69
	44	0.50025	-1.56070E-001	2.89325E-006	0.00000E+000	-1.55972E-001	0.00000E+000	9	...........	1488.69
	45	0.511367	-1.55068E-001	2.90218E-006	0.00000E+000	-1.54972E-001	0.00000E+000	9	...........	1488.69
	46	0.522483	-1.54066E-001	2.89386E-006	0.00000E+000	-1.53972E-001	0.00000E+000	9	...........	1488.69
	47	0.5336	-1.53066E-001	2.89737E-006	0.00000E+000	-1.52971E-001	0.00000E+000	9	...........	1488.69
	48	0.544717	-1.52066E-001	2.90956E-006	0.00000E+000	-1.51971E-001	0.00000E+000	9	...........	1488.69
	49	0.555833	-1.51069E-001	2.89295E-006	0.00000E+000	-1.50971E-001	0.00000E+000	9	...........	1488.69
	50	0.56695	-1.50069E-001	2.89616E-006	0.00000E+000	-1.49971E-001	0.00000E+000	9	...........	1488.69
	51	0.578067	-1.49068E-001	2.90911E-006	0.00000E+000	-1.48970E-001	0.00000E+000	9	...........	1488.69
	52	0.589183	-1.48069E-001	2.90605E-006	0.00000E+000	-1.47970E-001	0.00000E+000	9	...........	1488.69
	53	0.6003	-1.47069E-001	2.91563E-006	0.00000E+000	-1.46970E-001	0.00000E+000	9	...........	1488.69
	54	0.611417	-1.46067E-001	2.90916E-006	0.00000E+000	-1.45969E-001	0.00000E+000	9	...........	1488.69
	55	0.622533	-1.45063E-001	2.91001E-006	0.00000E+000	-1.44969E-001	0.00000E+000	9	...........	1488.69
	56	0.63365	-1.44066E-001	2.90580E-006	0.00000E+000	-1.43969E-001	0.00000E+000	9	...........	1488.69
	57	0.644767	-1.43066E-001	2.90610E-006	0.00000E+000	-1.42969E-001	0.00000E+000	9	...........	1488.69
	58	0.655883	-1.42066E-001	2.91136E-006	0.00000E+000	-1.41968E-001	0.00000E+000	9	...........	1488.69
	59	0.667	-1.41065E-001	2.90981E-006	0.00000E+000	-1.40968E-001	0.00000E+000	9	...........	1488.69
	60	0.678117	-1.40064E-001	2.92411E-006	0.00000E+000	-1.39968E-001	0.00000E+000	9	...........	1488.69
	61	0.689233	-1.39064E-001	2.92084E-006	0.00000E+000	-1.38968E-001	0.00000E+000	9	...........	1488.69
	62	0.70035	-1.38063E-001	2.91161E-006	0.00000E+000	-1.37967E-001	0.00000E+000	9	...........	1488.69
	63	0.711467	-1.37063E-001	2.91799E-006	0.00000E+000	-1.36967E-001	0.00000E+000	9	...........	1488.69
	64	0.722583	-1.36060E-001	2.92130E-006	0.00000E+000	-1.35967E-001	0.00000E+000	9	...........	1488.69
	65	0.7337	-1.35061E-001	2.91412E-006	0.00000E+000	-1.34967E-001	0.00000E+000	9	...........	1488.69
	66	0.744817	-1.34062E-001	2.91894E-006	0.00000E+000	-1.33966E-001	0.00000E+000	9	...........	1488.69
	67	0.755933	-1.33060E-001	2.91332E-006	0.00000E+000	-1.32966E-001	0.00000E+000	9	...........	1488.69
	68	0.76705	-1.32060E-001	2.90394E-006	0.00000E+000	-1.31966E-001	0.00000E+000	9	...........	1488.69
	69	0.778167	-1.31062E-001	2.91819E-006	0.00000E+000	-1.30965E-001	0.00000E+000	9	...........	1488.69
	70	0.789283	-1.30061E-001	2.90976E-006	0.00000E+000	-1.29965E-001	0.00000E+000	9	...........	1488.69
	71	0.8004	-1.29061E-001	2.92084E-006	0.00000E+000	-1.28965E-001	0.00000E+000	9	...........	1488.69
	72	0.811517	-1.28056E-001	2.92019E-006	0.00000E+000	-1.27965E-001	0.00000E+000	9	...........	1488.69
	73	0.822633	-1.27057E-001	2.93123E-006	0.00000E+000	-1.26964E-001	0.00000E+000	9	...........	1488.69
	74	0.83375	-1.26057E-001	2.90780E-006	0.00000E+000	-1.25964E-001	0.00000E+000	9	...........	1488.69
	75	0.844867	-1.25056E-001	2.91603E-006	0.00000E+000	-1.24964E-001	0.00000E+000	9	...........	1488.69
	76	0.855983	-1.24056E-001	2.92686E-006	0.00000E+000	-1.23964E-001	0.00000E+000	9	...........	1488.69
	77	0.8671	-1.23056E-001	2.90941E-006	0.00000E+000	-1.22963E-001	0.00000E+000	9	...........	1488.69
	78	0.878217	-1.22055E-001	2.92325E-006	0.00000E+000	-1.21963E-001	0.00000E+000	9	...........	1488.69
	79	0.889333	-1.21056E-001	2.92265E-006	0.00000E+000	-1.20963E-001	0.00000E+000	9	...........	1488.69
	80	0.90045	-1.20054E-001	2.92285E-006	0.00000E+000	-1.19963E-001	0.00000E+000	9	...........	1488.69
	81	0.911567	-1.19054E-001	2.90866E-006	0.00000E+000	-1.18962E-001	0.00000E+000	9	...........	1488.69
	82	0.922683	-1.18054E-001	2.92862E-006	0.00000E+000	-1.17962E-001	0.00000E+000	9	...........	1488.69
	83	0.9338	-1.17054E-001	2.92411E-006	0.00000E+000	-1.16962E-001	0.00000E+000	9	...........	1488.69
	84	0.944917	-1.16053E-001	2.92175E-006	0.00000E+000	-1.15961E-001	0.00000E+000	9	...........	1488.69
	85	0.95603	-1.15052E-001	2.93093E-006	0.00000E+000	-1.14961E-001	0.00000E+000	9	...........	1488.69
	86	0.96715	-1.14050E-001	2.93002E-006	0.00000E+000	-1.13961E-001	0.00000E+000	9	...........	1488.69
	87	0.97827	-1.13048E-001	2.92967E-006	0.00000E+000	-1.12961E-001	0.00000E+000	9	...........	1488.69
	88	0.98938	-1.12050E-001	2.92426E-006	0.00000E+000	-1.11960E-001	0.00000E+000	9	...........	1488.69
	89	1.0005	-1.11049E-001	2.92666E-006	0.00000E+000	-1.10960E-001	0.00000E+000	9	...........	1488.69
	90	1.01162	-1.10049E-001	2.92290E-006	0.00000E+000	-1.09960E-001	0.00000E+000	9	...........	1488.69
	91	1.02273	-1.09048E-001	2.93730E-006	0.00000E+000	-1.08960E-001	0.00000E+000	9	...........	1488.69
	92	1.03385	-1.08046E-001	2.92732E-006	0.00000E+000	-1.07959E-001	0.00000E+000	9	...........	1488.69
	93	1.04497	-1.07047E-001	2.93419E-006	0.00000E+000	-1.06959E-001	0.00000E+000	9	...........	1488.69
	94	1.05608	-1.06048E-001	2.93344E-006	0.00000E+000	-1.05959E-001	0.00000E+000	9	...........	1488.69
	95	1.0672	-1.05048E-001	2.92676E-006	0.00000E+000	-1.04958E-001	0.00000E+000	9	...........	1488.69
	96	1.07832	-1.04047E-001	2.93464E-006	0.00000E+000	-1.03958E-001	0.00000E+000	9	...........	1488.69
	97	1.08943	-1.03037E-001	2.95802E-006	0.00000E+000	-1.02945E-001	0.00000E+000	9	...........	1488.69
	98	1.10055	-1.02033E-001	2.93002E-006	0.00000E+000	-1.01945E-001	0.00000E+000	9	...........	1488.69
	99	1.11167	-1.01033E-001	2.93389E-006	0.00000E+000	-1.00945E-001	0.00000E+000	9	...........	1488.69
	100	1.12278	-1.00034E-001	2.94813E-006	0.00000E+000	-9.99447E-002	0.00000E+000	9	...........	1488.69
	101	1.1339	-9.90346E-002	2.92722E-006	0.00000E+000	-9.89444E-002	0.00000E+000	9	...........	1488.69
	102	1.14502	-9.80345E-002	2.93088E-006	0.00000E+000	-9.79441E-002	0.00000E+000	9	...........	1488.69
	103	1.15613	-9.70354E-002	2.94367E-006	0.00000E+000	-9.69439E-002	0.00000E+000	9	...........	1488.69
	104	1.16725	-9.60307E-002	2.93574E-006	0.00000E+000	-9.59436E-002	0.00000E+000	9	...........	1488.69
	105	1.17837	-9.50308E-002	2.93604E-006	0.00000E+000	-9.49433E-002	0.00000E+000	9	...........	1488.69
	106	1.18948	-9.40321E-002	2.93655E-006	0.00000E+000	-9.39431E-002	0.00000E+000	9	...........	1488.69
	107	1.2006	-9.30324E-002	2.94292E-006	0.00000E+000	-9.29428E-002	0.00000E+000	9	...........	1488.69
	108	1.21172	-9.20315E-002	2.94106E-006	0.00000E+000	-9.19425E-002	0.00000E+000	9	...........	1488.69
	109	1.22283	-9.10326E-002	2.94432E-006	0.00000E+000	-9.09423E-002	0.00000E+000	9	...........	1488.69
	110	1.23395	-9.00297E-002	2.94151E-006	0.00000E+000	-8.99420E-002	0.00000E+000	9	...........	1488.69
	111	1.24507	-8.90310E-002	2.94021E-006	0.00000E+000	-8.89417E-002	0.00000E+000	9	...........	1488.69
	112	1.25618	-8.80278E-002	2.95004E-006	0.00000E+000	-8.79415E-002	0.00000E+000	9	...........	1488.69
	113	1.2673	-8.70287E-002	2.94051E-006	0.00000E+000	-8.69412E-002	0.00000E+000	9	...........	1488.69
	114	1.27842	-8.60274E-002	2.94537E-006	0.00000E+000	-8.59409E-002	0.00000E+000	9	...........	1488.69
	115	1.28953	-8.50304E-002	2.95501E-006	0.00000E+000	-8.49406E-002	0.00000E+000	9	...........	1488.69
	116	1.30065	-8.40267E-002	2.94563E-006	0.00000E+000	-8.39404E-002	0.00000E+000	9	...........	1488.69
	117	1.31177	-8.30272E-002	2.95872E-006	0.00000E+000	-8.29401E-002	0.00000E+000	9	...........	1488.69
	118	1.32288	-8.20269E-002	2.95240E-006	0.00000E+000	-8.19398E-002	0.00000E+000	9	...........	1488.69
	119	1.334	-8.10293E-002	2.96188E-006	0.00000E+000	-8.09396E-002	0.00000E+000	9	...........	1488.69
	120	1.34512	-8.00301E-002	2.93845E-006	0.00000E+000	-7.99393E-002	0.00000E+000	9	...........	1488.69
	121	1.35623	-7.90286E-002	2.96740E-006	0.00000E+000	-7.89390E-002	0.00000E+000	9	...........	1488.69
	122	1.36735	-7.80291E-002	2.96002E-006	0.00000E+000	-7.79388E-002	0.00000E+000	9	...........	1488.69
	123	1.37847	-7.70259E-002	2.96810E-006	0.00000E+000	-7.69385E-002	0.00000E+000	9	...........	1488.69
	124	1.38958	-7.60281E-002	2.96795E-006	0.00000E+000	-7.59382E-002	0.00000E+000	9	...........	1488.69
	125	1.4007	-7.50257E-002	2.96955E-006	0.00000E+000	-7.49380E-002	0.00000E+000	9	...........	1488.69
	126	1.41182	-7.40259E-002	2.95270E-006	0.00000E+000	-7.39377E-002	0.00000E+000	9	...........	1488.69
	127	1.42293	-7.30243E-002	2.97106E-006	0.00000E+000	-7.29374E-002	0.00000E+000	9	...........	1488.69
	128	1.43405	-7.20252E-002	2.97567E-006	0.00000E+000	-7.19372E-002	0.00000E+000	9	...........	1488.69
	129	1.44517	-7.10257E-002	2.96343E-006	0.00000E+000	-7.09369E-002	0.00000E+000	9	...........	1488.69
	130	1.45628	-7.00247E-002	2.98049E-006	0.00000E+000	-6.99366E-002	0.00000E+000	9	...........	1488.69
	131	1.4674	-6.90212E-002	2.97482E-006	0.00000E+000	-6.89364E-002	0.00000E+000	9	...........	1488.69
	132	1.47852	-6.80208E-002	2.97592E-006	0.00000E+000	-6.79361E-002	0.00000E+000	9	...........	1488.69
	133	1.48963	-6.70228E-002	2.97627E-006	0.00000E+000	-6.69358E-002	0.00000E+000	9	...........	1488.69
	134	1.50075	-6.60217E-002	2.97979E-006	0.00000E+000	-6.59356E-002	0.00000E+000	9	...........	1488.69
	135	1.51187	-6.50205E-002	2.98209E-006	0.00000E+000	-6.49353E-002	0.00000E+000	9	...........	1488.69
	136	1.52298	-6.40181E-002	2.99589E-006	0.00000E+000	-6.39350E-002	0.00000E+000	9	...........	1488.69
	137	1.5341	-6.30163E-002	2.99062E-006	0.00000E+000	-6.29348E-002	0.00000E+000	9	...........	1488.69
	138	1.54522	-6.20172E-002	2.98696E-006	0.00000E+000	-6.19345E-002	0.00000E+000	9	...........	1488.69
	139	1.55633	-6.10174E-002	2.99463E-006	0.00000E+000	-6.09342E-002	0.00000E+000	9	...........	1488.69
	140	1.56745	-6.00179E-002	2.99634E-006	0.00000E+000	-5.99340E-002	0.00000E+000	9	...........	1488.69
	141	1.57857	-5.90158E-002	2.99890E-006	0.00000E+000	-5.89337E-002	0.00000E+000	9	...........	1488.69
	142	1.58968	-5.80167E-002	2.99805E-006	0.00000E+000	-5.79334E-002	0.00000E+000	9	...........	1488.69
	143	1.6008	-5.70169E-002	3.01620E-006	0.00000E+000	-5.69332E-002	0.00000E+000	9	...........	1488.69
	144	1.61192	-5.60134E-002	3.00452E-006	0.00000E+000	-5.59329E-002	0.00000E+000	9	...........	1488.69
	145	1.62303	-5.50142E-002	3.01691E-006	0.00000E+000	-5.49326E-002	0.00000E+000	9	...........	1488.69
	146	1.63415	-5.40158E-002	3.01671E-006	0.00000E+000	-5.39324E-002	0.00000E+000	9	...........	1488.69
	147	1.64527	-5.30162E-002	3.01811E-006	0.00000E+000	-5.29321E-002	0.00000E+000	9	...........	1488.69
	148	1.65638	-5.20150E-002	3.02293E-006	0.00000E+000	-5.19318E-002	0.00000E+000	9	...........	1488.69
	149	1.6675	-5.10118E-002	3.02804E-006	0.00000E+000	-5.09316E-002	0.00000E+000	9	...........	1488.69
	150	1.67862	-5.00105E-002	3.03216E-006	0.00000E+000	-4.99313E-002	0.00000E+000	9	...........	1488.69
	151	1.68973	-4.89976E-002	3.05037E-006	0.00000E+000	-4.89185E-002	0.00000E+000	9	...........	1488.69
	152	1.70085	-4.80010E-002	3.03898E-006	0.00000E+000	-4.79183E-002	0.00000E+000	9	...........	1488.69
	153	1.71197	-4.69990E-002	3.04118E-006	0.00000E+000	-4.69180E-002	0.00000E+000	9	...........	1488.69
	154	1.72308	-4.59977E-002	3.05026E-006	0.00000E+000	-4.59177E-002	0.00000E+000	9	...........	1488.69
	155	1.7342	-4.49960E-002	3.04756E-006	0.00000E+000	-4.49174E-002	0.00000E+000	9	...........	1488.69
	156	1.74532	-4.39963E-002	3.05252E-006	0.00000E+000	-4.39172E-002	0.00000E+000	9	...........	1488.69
	157	1.75643	-4.29948E-002	3.06210E-006	0.00000E+000	-4.29169E-002	0.00000E+000	9	...........	1488.69
	158	1.76755	-4.19945E-002	3.04856E-006	0.00000E+000	-4.19166E-002	0.00000E+000	9	...........	1488.69
	159	1.77867	-4.09928E-002	3.06617E-006	0.00000E+000	-4.09164E-002	0.00000E+000	9	...........	1488.69
	160	1.78978	-3.99966E-002	3.06687E-006	0.00000E+000	-3.99161E-002	0.00000E+000	9	...........	1488.69
	161	1.8009	-3.89936E-002	3.07389E-006	0.00000E+000	-3.89158E-002	0.00000E+000	9	...........	1488.69
	162	1.81202	-3.79919E-002	3.07209E-006	0.00000E+000	-3.79156E-002	0.00000E+000	9	...........	1488.69
	163	1.82313	-3.69923E-002	3.08147E-006	0.00000E+000	-3.69153E-002	0.00000E+000	9	...........	1488.69
	164	1.83425	-3.59919E-002	3.09887E-006	0.00000E+000	-3.59150E-002	0.00000E+000	9	...........	1488.69
	165	1.84537	-3.49927E-002	3.08433E-006	0.00000E+000	-3.49148E-002	0.00000E+000	9	...........	1488.69
	166	1.85648	-3.39927E-002	3.09591E-006	0.00000E+000	-3.39145E-002	0.00000E+000	9	...........	1488.69
	167	1.8676	-3.29901E-002	3.09356E-006	0.00000E+000	-3.29142E-002	0.00000E+000	9	...........	1488.69
	168	1.87872	-3.19908E-002	3.11091E-006	0.00000E+000	-3.19140E-002	0.00000E+000	9	...........	1488.69
	169	1.88983	-3.09886E-002	3.09907E-006	0.00000E+000	-3.09137E-002	0.00000E+000	9	...........	1488.69
	170	1.90095	-2.99869E-002	3.12566E-006	0.00000E+000	-2.99134E-002	0.00000E+000	9	...........	1488.69
	171	1.91207	-2.89869E-002	3.10394E-006	0.00000E+000	-2.89132E-002	0.00000E+000	9	...........	1488.69
	172	1.92318	-2.79861E-002	3.11939E-006	0.00000E+000	-2.79129E-002	0.00000E+000	9	...........	1488.69
	173	1.9343	-2.69867E-002	3.13700E-006	0.00000E+000	-2.69126E-002	0.00000E+000	9	...........	1488.69
	174	1.94542	-2.59853E-002	3.12566E-006	0.00000E+000	-2.59124E-002	0.00000E+000	9	...........	1488.69
	175	1.95653	-2.49853E-002	3.13895E-006	0.00000E+000	-2.49121E-002	0.00000E+000	9	...........	1488.69
	176	1.96765	-2.39826E-002	3.14056E-006	0.00000E+000	-2.39118E-002	0.00000E+000	9	...........	1488.69
	177	1.97877	-2.29814E-002	3.14337E-006	0.00000E+000	-2.29116E-002	0.00000E+000	9	...........	1488.69
	178	1.98988	-2.19822E-002	3.16559E-006	0.00000E+000	-2.19113E-002	0.00000E+000	9	...........	1488.69
	179	2.001	-2.09825E-002	3.16303E-006	0.00000E+000	-2.09110E-002	0.00000E+000	9	...........	1488.69
	180	2.01212	-1.99781E-002	3.16037E-006	0.00000E+000	-1.99108E-002	0.00000E+000	9	...........	1488.69
	181	2.02323	-1.89795E-002	3.16082E-006	0.00000E+000	-1.89105E-002	0.00000E+000	9	...........	1488.69
	182	2.03435	-1.79787E-002	3.17688E-006	0.00000E+000	-1.79102E-002	0.00000E+000	9	...........	1488.69
	183	2.04547	-1.69800E-002	3.18164E-006	0.00000E+000	-1.69100E-002	0.00000E+000	9	...........	1488.69
	184	2.05658	-1.59801E-002	3.19443E-006	0.00000E+000	-1.59097E-002	0.00000E+000	9	...........	1488.69
	185	2.0677	-1.49801E-002	3.19468E-006	0.00000E+000	-1.49094E-002	0.00000E+000	9	...........	1488.69
	186	2.07882	-1.39785E-002	3.19945E-006	0.00000E+000	-1.39092E-002	0.00000E+000	9	...........	1488.69
	187	2.08993	-1.29766E-002	3.22398E-006	0.00000E+000	-1.29089E-002	0.00000E+000	9	...........	1488.69
	188	2.10105	-1.19762E-002	3.22142E-006	0.00000E+000	-1.19086E-002	0.00000E+000	9	...........	1488.69
	189	2.11217	-1.09739E-002	3.22563E-006	0.00000E+000	-1.09084E-002	0.00000E+000	9	...........	1488.69
	190	2.12328	-9.97436E-003	3.22318E-006	0.00000E+000	-9.90810E-003	0.00000E+000	9	...........	1488.69
	191	2.1344	-8.97433E-003	3.23832E-006	0.00000E+000	-8.90782E-003	0.00000E+000	9	...........	1488.69
	192	2.14552	-7.97467E-003	3.23476E-006	0.00000E+000	-7.90756E-003	0.00000E+000	9	...........	1488.69
	193	2.15663	-6.97413E-003	3.25824E-006	0.00000E+000	-6.90729E-003	0.00000E+000	9	...........	1488.69
	194	2.16775	-5.97273E-003	3.25132E-006	0.00000E+000	-5.90702E-003	0.00000E+000	9	...........	1488.69
	195	2.17887	-4.96895E-003	3.26506E-006	0.00000E+000	-4.90676E-003	0.00000E+000	9	...........	1488.69
	196	2.18998	-3.97063E-003	3.26832E-006	0.00000E+000	-3.90649E-003	0.00000E+000	9	...........	1488.69
	197	2.2011	-2.97322E-003	3.27399E-006	0.00000E+000	-2.90622E-003	0.00000E+000	9	...........	1488.69
	198	2.21222	-1.97248E-003	3.28663E-006	0.00000E+000	-1.90596E-003	0.00000E+000	9	...........	1488.69
	199	2.22333	-9.72126E-004	3.28367E-006	0.00000E+000	-9.05685E-004	0.00000E+000	9	...........	1488.69
	200	2.23445	2.93164E-005	3.31262E-006	0.00000E+000	9.45777E-005	0.00000E+000	9	...........	1488.69
	201	2.24557	-9.32740E-004	-5.77004E-007	0.00000E+000	-9.05685E-004	0.00000E+000	9	...........	1488.69
	202	2.25668	-1.93323E-003	-7.41789E-007	0.00000E+000	-1.90596E-003	0.00000E+000	9	...........	1488.69
	203	2.2678	-2.93370E-003	-8.52197E-007	0.00000E+000	-2.90622E-003	0.00000E+000	9	...........	1488.69
	204	2.27892	-3.93225E-003	-9.12342E-007	0.00000E+000	-3.90649E-003	0.00000E+000	9	...........	1488.69
	205	2.29003	-4.93092E-003	-9.84727E-007	0.00000E+000	-4.90676E-003	0.00000E+000	9	...........	1488.69
	206	2.30115	-5.93274E-003	-1.02937E-006	0.00000E+000	-5.90702E-003	0.00000E+000	9	...........	1488.69
	207	2.31227	-6.93408E-003	-1.06780E-006	0.00000E+000	-6.90729E-003	0.00000E+000	9	...........	1488.69
	208	2.32338	-7.93450E-003	-1.11184E-006	0.00000E+000	-7.90756E-003	0.00000E+000	9	...........	1488.69
	209	2.3345	-8.93446E-003	-1.12458E-006	0.00000E+000	-8.90782E-003	0.00000E+000	9	...........	1488.69
	210	2.34562	-9.93356E-003	-1.15969E-006	0.00000E+000	-9.90810E-003	0.00000E+000	9	...........	1488.69
	211	2.35673	-1.09354E-002	-1.18723E-006	0.00000E+000	-1.09084E-002	0.00000E+000	9	...........	1488.69
	212	2.36785	-1.19358E-002	-1.22039E-006	0.00000E+000	-1.19086E-002	0.00000E+000	9	...........	1488.69
	213	2.37897	-1.29354E-002	-1.23459E-006	0.00000E+000	-1.29089E-002	0.00000E+000	9	...........	1488.69
	214	2.39008	-1.39392E-002	-1.25842E-006	0.00000E+000	-1.39092E-002	0.00000E+000	9	...........	1488.69
	215	2.4012	-1.49397E-002	-1.26393E-006	0.00000E+000	-1.49094E-002	0.00000E+000	9	...........	1488.69
	216	2.41232	-1.59407E-002	-1.29363E-006	0.00000E+000	-1.59097E-002	0.00000E+000	9	...........	1488.69
	217	2.42343	-1.69393E-002	-1.30216E-006	0.00000E+000	-1.69100E-002	0.00000E+000	9	...........	1488.69
	218	2.43455	-1.79394E-002	-1.32558E-006	0.00000E+000	-1.79102E-002	0.00000E+000	9	...........	1488.69
	219	2.44567	-1.89413E-002	-1.33647E-006	0.00000E+000	-1.89105E-002	0.00000E+000	9	...........	1488.69
	220	2.45678	-1.99424E-002	-1.35864E-006	0.00000E+000	-1.99108E-002	0.00000E+000	9	...........	1488.69
	221	2.4679	-2.09446E-002	-1.36827E-006	0.00000E+000	-2.09110E-002	0.00000E+000	9	...........	1488.69
	222	2.47902	-2.19431E-002	-1.37464E-006	0.00000E+000	-2.19113E-002	0.00000E+000	9	...........	1488.69
	223	2.49013	-2.29448E-002	-1.39842E-006	0.00000E+000	-2.29116E-002	0.00000E+000	9	...........	1488.69
	224	2.50125	-2.39450E-002	-1.39681E-006	0.00000E+000	-2.39118E-002	0.00000E+000	9	...........	1488.69
	225	2.51237	-2.49465E-002	-1.42210E-006	0.00000E+000	-2.49121E-002	0.00000E+000	9	...........	1488.69
	226	2.52348	-2.59456E-002	-1.44076E-006	0.00000E+000	-2.59124E-002	0.00000E+000	9	...........	1488.69
	227	2.5346	-2.69487E-002	-1.44863E-006	0.00000E+000	-2.69126E-002	0.00000E+000	9	...........	1488.69
	228	2.54572	-2.79490E-002	-1.46022E-006	0.00000E+000	-2.79129E-002	0.00000E+000	9	...........	1488.69
	229	2.55683	-2.89487E-002	-1.45972E-006	0.00000E+000	-2.89132E-002	0.00000E+000	9	...........	1488.69
	230	2.56795	-2.99475E-002	-1.48625E-006	0.00000E+000	-2.99134E-002	0.00000E+000	9	...........	1488.69
	231	2.57907	-3.09502E-002	-1.49418E-006	0.00000E+000	-3.09137E-002	0.00000E+000	9	...........	1488.69
	232	2.59018	-3.19515E-002	-1.50682E-006	0.00000E+000	-3.19140E-002	0.00000E+000	9	...........	1488.69
	233	2.6013	-3.29533E-002	-1.50562E-006	0.00000E+000	-3.29142E-002	0.00000E+000	9	...........	1488.69
	234	2.61242	-3.39530E-002	-1.51826E-006	0.00000E+000	-3.39145E-002	0.00000E+000	9	...........	1488.69
	235	2.62353	-3.49547E-002	-1.52899E-006	0.00000E+000	-3.49148E-002	0.00000E+000	9	...........	1488.69
	236	2.63465	-3.59531E-002	-1.53261E-006	0.00000E+000	-3.59150E-002	0.00000E+000	9	...........	1488.69
	237	2.64577	-3.69540E-002	-1.54404E-006	0.00000E+000	-3.69153E-002	0.00000E+000	9	...........	1488.69
	238	2.65688	-3.79538E-002	-1.55302E-006	0.00000E+000	-3.79156E-002	0.00000E+000	9	...........	1488.69
	239	2.668	-3.89557E-002	-1.56521E-006	0.00000E+000	-3.89158E-002	0.00000E+000	9	...........	1488.69
	240	2.67912	-3.99572E-002	-1.56501E-006	0.00000E+000	-3.99161E-002	0.00000E+000	9	...........	1488.69
	241	2.69023	-4.09565E-002	-1.57329E-006	0.00000E+000	-4.09164E-002	0.00000E+000	9	...........	1488.69
	242	2.70135	-4.19579E-002	-1.58492E-006	0.00000E+000	-4.19166E-002	0.00000E+000	9	...........	1488.69
	243	2.71247	-4.29560E-002	-1.58513E-006	0.00000E+000	-4.29169E-002	0.00000E+000	9	...........	1488.69
	244	2.72358	-4.39576E-002	-1.60103E-006	0.00000E+000	-4.39172E-002	0.00000E+000	9	...........	1488.69
	245	2.7347	-4.49575E-002	-1.60589E-006	0.00000E+000	-4.49174E-002	0.00000E+000	9	...........	1488.69
	246	2.74582	-4.59585E-002	-1.62054E-006	0.00000E+000	-4.59177E-002	0.00000E+000	9	...........	1488.69
	247	2.75693	-4.69611E-002	-1.61638E-006	0.00000E+000	-4.69180E-002	0.00000E+000	9	...........	1488.69
	248	2.76805	-4.79603E-002	-1.62907E-006	0.00000E+000	-4.79183E-002	0.00000E+000	9	...........	1488.69
	249	2.77917	-4.89564E-002	-1.63288E-006	0.00000E+000	-4.89185E-002	0.00000E+000	9	...........	1488.69
	250	2.79028	-4.99722E-002	-1.66192E-006	0.00000E+000	-4.99313E-002	0.00000E+000	9	...........	1488.69
	251	2.8014	-5.09724E-002	-1.64858E-006	0.00000E+000	-5.09316E-002	0.00000E+000	9	...........	1488.69
	252	2.81252	-5.19750E-002	-1.64888E-006	0.00000E+000	-5.19318E-002	0.00000E+000	9	...........	1488.69
	253	2.82363	-5.29783E-002	-1.66258E-006	0.00000E+000	-5.29321E-002	0.00000E+000	9	...........	1488.69
	254	2.83475	-5.39752E-002	-1.67366E-006	0.00000E+000	-5.39324E-002	0.00000E+000	9	...........	1488.69
	255	2.84587	-5.49768E-002	-1.68395E-006	0.00000E+000	-5.49326E-002	0.00000E+000	9	...........	1488.69
	256	2.85698	-5.59760E-002	-1.67361E-006	0.00000E+000	-5.59329E-002	0.00000E+000	9	...........	1488.69
	257	2.8681	-5.69782E-002	-1.69152E-006	0.00000E+000	-5.69332E-002	0.00000E+000	9	...........	1488.69
	258	2.87922	-5.79788E-002	-1.70055E-006	0.00000E+000	-5.79334E-002	0.00000E+000	9	...........	1488.69
	259	2.89033	-5.89783E-002	-1.70722E-006	0.00000E+000	-5.89337E-002	0.00000E+000	9	...........	1488.69
	260	2.90145	-5.99799E-002	-1.71279E-006	0.00000E+000	-5.99340E-002	0.00000E+000	9	...........	1488.69
	261	2.91257	-6.09790E-002	-1.70251E-006	0.00000E+000	-6.09342E-002	0.00000E+000	9	...........	1488.69
	262	2.92368	-6.19785E-002	-1.72914E-006	0.00000E+000	-6.19345E-002	0.00000E+000	9	...........	1488.69
	263	2.9348	-6.29790E-002	-1.72979E-006	0.00000E+000	-6.29348E-002	0.00000E+000	9	...........	1488.69
	264	2.94592	-6.39817E-002	-1.73035E-006	0.00000E+000	-6.39350E-002	0.00000E+000	9	...........	1488.69
	265	2.95703	-6.49827E-002	-1.75192E-006	0.00000E+000	-6.49353E-002	0.00000E+000	9	...........	1488.69
	266	2.96815	-6.59845E-002	-1.75899E-006	0.00000E+000	-6.59356E-002	0.00000E+000	9	...........	1488.69
	267	2.97927	-6.69842E-002	-1.76225E-006	0.00000E+000	-6.69358E-002	0.00000E+000	9	...........	1488.69
	268	2.99038	-6.79839E-002	-1.77013E-006	0.00000E+000	-6.79361E-002	0.00000E+000	9	...........	1488.69
	269	3.0015	-6.89835E-002	-1.77088E-006	0.00000E+000	-6.89364E-002	0.00000E+000	9	...........	1488.69
	270	3.01262	-6.99864E-002	-1.78367E-006	0.00000E+000	-6.99366E-002	0.00000E+000	9	...........	1488.69
	271	3.02373	-7.09861E-002	-1.79210E-006	0.00000E+000	-7.09369E-002	0.00000E+000	9	...........	1488.69
	272	3.03485	-7.19880E-002	-1.79641E-006	0.00000E+000	-7.19372E-002	0.00000E+000	9	...........	1488.69
	273	3.04597	-7.29857E-002	-1.80228E-006	0.00000E+000	-7.29374E-002	0.00000E+000	9	...........	1488.69
	274	3.05708	-7.39872E-002	-1.79857E-006	0.00000E+000	-7.39377E-002	0.00000E+000	9	...........	1488.69
	275	3.0682	-7.49878E-002	-1.81959E-006	0.00000E+000	-7.49380E-002	0.00000E+000	9	...........	1488.69
	276	3.07932	-7.59886E-002	-1.81994E-006	0.00000E+000	-7.59382E-002	0.00000E+000	9	...........	1488.69
	277	3.09043	-7.69888E-002	-1.84121E-006	0.00000E+000	-7.69385E-002	0.00000E+000	9	...........	1488.69
	278	3.10155	-7.79905E-002	-1.83504E-006	0.00000E+000	-7.79388E-002	0.00000E+000	9	...........	1488.69
	279	3.11267	-7.89904E-002	-1.84121E-006	0.00000E+000	-7.89390E-002	0.00000E+000	9	...........	1488.69
	280	3.12378	-7.99905E-002	-1.85410E-006	0.00000E+000	-7.99393E-002	0.00000E+000	9	...........	1488.69
	281	3.1349	-8.09905E-002	-1.85816E-006	0.00000E+000	-8.09396E-002	0.00000E+000	9	...........	1488.69
	282	3.14602	-8.19883E-002	-1.86383E-006	0.00000E+000	-8.19398E-002	0.00000E+000	9	...........	1488.69
	283	3.15713	-8.29887E-002	-1.86488E-006	0.00000E+000	-8.29401E-002	0.00000E+000	9	...........	1488.69
	284	3.16825	-8.39885E-002	-1.88650E-006	0.00000E+000	-8.39404E-002	0.00000E+000	9	...........	1488.69
	285	3.17937	-8.49909E-002	-1.88741E-006	0.00000E+000	-8.49406E-002	0.00000E+000	9	...........	1488.69
	286	3.19048	-8.59896E-002	-1.88174E-006	0.00000E+000	-8.59409E-002	0.00000E+000	9	...........	1488.69
	287	3.2016	-8.69897E-002	-1.91143E-006	0.00000E+000	-8.69412E-002	0.00000E+000	9	...........	1488.69
	288	3.21272	-8.79905E-002	-1.89207E-006	0.00000E+000	-8.79415E-002	0.00000E+000	9	...........	1488.69
	289	3.22383	-8.89931E-002	-1.92016E-006	0.00000E+000	-8.89417E-002	0.00000E+000	9	...........	1488.69
	290	3.23495	-8.99926E-002	-1.91189E-006	0.00000E+000	-8.99420E-002	0.00000E+000	9	...........	1488.69
	291	3.24607	-9.09935E-002	-1.93210E-006	0.00000E+000	-9.09423E-002	0.00000E+000	9	...........	1488.69
	292	3.25718	-9.19956E-002	-1.92919E-006	0.00000E+000	-9.19425E-002	0.00000E+000	9	...........	1488.69
	293	3.2683	-9.29958E-002	-1.93842E-006	0.00000E+000	-9.29428E-002	0.00000E+000	9	...........	1488.69
	294	3.27942	-9.39950E-002	-1.93626E-006	0.00000E+000	-9.39431E-002	0.00000E+000	9	...........	1488.69
	295	3.29053	-9.49964E-002	-1.95533E-006	0.00000E+000	-9.49433E-002	0.00000E+000	9	...........	1488.69
	296	3.30165	-9.59976E-002	-1.96907E-006	0.00000E+000	-9.59436E-002	0.00000E+000	9	...........	1488.69
	297	3.31277	-9.69996E-002	-1.96732E-006	0.00000E+000	-9.69439E-002	0.00000E+000	9	...........	1488.69
	298	3.32388	-9.79994E-002	-1.97690E-006	0.00000E+000	-9.79441E-002	0.00000E+000	9	...........	1488.69
	299	3.335	-9.90009E-002	-1.98327E-006	0.00000E+000	-9.89444E-002	0.00000E+000	9	...........	1488.69
	300	3.34612	-9.99975E-002	-1.97534E-006	0.00000E+000	-9.99447E-002	0.00000E+000	9	...........	1488.69
	301	3.35723	-1.00998E-001	-1.99385E-006	0.00000E+000	-1.00945E-001	0.00000E+000	9	...........	1488.69
	302	3.36835	-1.01999E-001	-2.00133E-006	0.00000E+000	-1.01945E-001	0.00000E+000	9	...........	1488.69
	303	3.37947	-1.03000E-001	-2.00805E-006	0.00000E+000	-1.02945E-001	0.00000E+000	9	...........	1488.69
	304	3.39058	-1.04012E-001	-2.03223E-006	0.00000E+000	-1.03958E-001	0.00000E+000	9	...........	1488.69
	305	3.4017	-1.05013E-001	-2.03940E-006	0.00000E+000	-1.04958E-001	0.00000E+000	9	...........	1488.69
	306	3.41282	-1.06012E-001	-2.02119E-006	0.00000E+000	-1.05959E-001	0.00000E+000	9	...........	1488.69
	307	3.42393	-1.07011E-001	-2.04672E-006	0.00000E+000	-1.06959E-001	0.00000E+000	9	...........	1488.69
	308	3.43505	-1.08012E-001	-2.04537E-006	0.00000E+000	-1.07959E-001	0.00000E+000	9	...........	1488.69
	309	3.44617	-1.09012E-001	-2.05776E-006	0.00000E+000	-1.08960E-001	0.00000E+000	9	...........	1488.69
	310	3.45728	-1.10014E-001	-2.05901E-006	0.00000E+000	-1.09960E-001	0.00000E+000	9	...........	1488.69
	311	3.4684	-1.11014E-001	-2.07401E-006	0.00000E+000	-1.10960E-001	0.00000E+000	9	...........	1488.69
	312	3.47952	-1.12014E-001	-2.06749E-006	0.00000E+000	-1.11960E-001	0.00000E+000	9	...........	1488.69
	313	3.49063	-1.13012E-001	-2.07637E-006	0.00000E+000	-1.12961E-001	0.00000E+000	9	...........	1488.69
	314	3.50175	-1.14013E-001	-2.09879E-006	0.00000E+000	-1.13961E-001	0.00000E+000	9	...........	1488.69
	315	3.51287	-1.15016E-001	-2.09583E-006	0.00000E+000	-1.14961E-001	0.00000E+000	9	...........	1488.69
	316	3.52398	-1.16017E-001	-2.10185E-006	0.00000E+000	-1.15961E-001	0.00000E+000	9	...........	1488.69
	317	3.5351	-1.17017E-001	-2.10441E-006	0.00000E+000	-1.16962E-001	0.00000E+000	9	...........	1488.69
	318	3.54622	-1.18015E-001	-2.11916E-006	0.00000E+000	-1.17962E-001	0.00000E+000	9	...........	1488.69
	319	3.55733	-1.19017E-001	-2.11841E-006	0.00000E+000	-1.18962E-001	0.00000E+000	9	...........	1488.69
	320	3.56845	-1.20014E-001	-2.12081E-006	0.00000E+000	-1.19963E-001	0.00000E+000	9	...........	1488.69
	321	3.57957	-1.21016E-001	-2.13802E-006	0.00000E+000	-1.20963E-001	0.00000E+000	9	...........	1488.69
	322	3.59068	-1.22018E-001	-2.13401E-006	0.00000E+000	-1.21963E-001	0.00000E+000	9	...........	1488.69
	323	3.6018	-1.23019E-001	-2.16235E-006	0.00000E+000	-1.22963E-001	0.00000E+000	9	...........	1488.69
	324	3.61292	-1.24019E-001	-2.15753E-006	0.00000E+000	-1.23964E-001	0.00000E+000	9	...........	1488.69
	325	3.62403	-1.25017E-001	-2.17258E-006	0.00000E+000	-1.24964E-001	0.00000E+000	9	...........	1488.69
	326	3.63515	-1.26018E-001	-2.17965E-006	0.00000E+000	-1.25964E-001	0.00000E+000	9	...........	1488.69
	327	3.64627	-1.27016E-001	-2.19310E-006	0.00000E+000	-1.26964E-001	0.00000E+000	9	...........	1488.69
	328	3.65738	-1.28018E-001	-2.19430E-006	0.00000E+000	-1.27965E-001	0.00000E+000	9	...........	1488.69
	329	3.6685	-1.29022E-001	-2.21055E-006	0.00000E+000	-1.28965E-001	0.00000E+000	9	...........	1488.69
	330	3.67962	-1.30022E-001	-2.21171E-006	0.00000E+000	-1.29965E-001	0.00000E+000	9	...........	1488.69
	331	3.69073	-1.31020E-001	-2.21602E-006	0.00000E+000	-1.30965E-001	0.00000E+000	9	...........	1488.69
	332	3.70185	-1.32020E-001	-2.23217E-006	0.00000E+000	-1.31966E-001	0.00000E+000	9	...........	1488.69
	333	3.71297	-1.33020E-001	-2.23930E-006	0.00000E+000	-1.32966E-001	0.00000E+000	9	...........	1488.69
	334	3.72408	-1.34021E-001	-2.24286E-006	0.00000E+000	-1.33966E-001	0.00000E+000	9	...........	1488.69
	335	3.7352	-1.35022E-001	-2.24271E-006	0.00000E+000	-1.34967E-001	0.00000E+000	9	...........	1488.69
	336	3.74632	-1.36021E-001	-2.27832E-006	0.00000E+000	-1.35967E-001	0.00000E+000	9	...........	1488.69
	337	3.75743	-1.37022E-001	-2.26814E-006	0.00000E+000	-1.36967E-001	0.00000E+000	9	...........	1488.69
	338	3.76855	-1.38026E-001	-2.28018E-006	0.00000E+000	-1.37967E-001	0.00000E+000	9	...........	1488.69
	339	3.77967	-1.39023E-001	-2.29558E-006	0.00000E+000	-1.38968E-001	0.00000E+000	9	...........	1488.69
	340	3.79078	-1.40024E-001	-2.29563E-006	0.00000E+000	-1.39968E-001	0.00000E+000	9	...........	1488.69
	341	3.8019	-1.41025E-001	-2.31414E-006	0.00000E+000	-1.40968E-001	0.00000E+000	9	...........	1488.69
	342	3.81302	-1.42025E-001	-2.31861E-006	0.00000E+000	-1.41968E-001	0.00000E+000	9	...........	1488.69
	343	3.82413	-1.43026E-001	-2.33245E-006	0.00000E+000	-1.42969E-001	0.00000E+000	9	...........	1488.69
	344	3.83525	-1.44025E-001	-2.33526E-006	0.00000E+000	-1.43969E-001	0.00000E+000	9	...........	1488.69
	345	3.84637	-1.45025E-001	-2.35392E-006	0.00000E+000	-1.44969E-001	0.00000E+000	9	...........	1488.69
	346	3.85748	-1.46026E-001	-2.36591E-006	0.00000E+000	-1.45969E-001	0.00000E+000	9	...........	1488.69
	347	3.8686	-1.47028E-001	-2.37850E-006	0.00000E+000	-1.46970E-001	0.00000E+000	9	...........	1488.69
	348	3.87972	-1.48028E-001	-2.37900E-006	0.00000E+000	-1.47970E-001	0.00000E+000	9	...........	1488.69
	349	3.89083	-1.49028E-001	-2.39119E-006	0.00000E+000	-1.48970E-001	0.00000E+000	9	...........	1488.69
	350	3.90195	-1.50028E-001	-2.41256E-006	0.00000E+000	-1.49971E-001	0.00000E+000	9	...........	1488.69
	351	3.91307	-1.51028E-001	-2.41712E-006	0.00000E+000	-1.50971E-001	0.00000E+000	9	...........	1488.69
	352	3.92418	-1.52027E-001	-2.41968E-006	0.00000E+000	-1.51971E-001	0.00000E+000	9	...........	1488.69
	353	3.9353	-1.53027E-001	-2.44507E-006	0.00000E+000	-1.52971E-001	0.00000E+000	9	...........	1488.69
	354	3.94642	-1.54028E-001	-2.45003E-006	0.00000E+000	-1.53972E-001	0.00000E+000	9	...........	1488.69
	355	3.95753	-1.55031E-001	-2.46458E-006	0.00000E+000	-1.54972E-001	0.00000E+000	9	...........	1488.69
	356	3.96865	-1.56030E-001	-2.47782E-006	0.00000E+000	-1.55972E-001	0.00000E+000	9	...........	1488.69
	357	3.97977	-1.57030E-001	-2.48479E-006	0.00000E+000	-1.56972E-001	0.00000E+000	9	...........	1488.69
	358	3.99088	-1.58042E-001	-2.51870E-006	0.00000E+000	-1.57985E-001	0.00000E+000	9	...........	1488.69
	359	4.002	-1.59041E-001	-2.50973E-006	0.00000E+000	-1.58985E-001	0.00000E+000	9	...........	1488.69
	360	4.01312	-1.60044E-001	-2.50887E-006	0.00000E+000	-1.59986E-001	0.00000E+000	9	...........	1488.69
	361	4.02423	-1.61043E-001	-2.53762E-006	0.00000E+000	-1.60986E-001	0.00000E+000	9	...........	1488.69
	362	4.03535	-1.62044E-001	-2.53099E-006	0.00000E+000	-1.61986E-001	0.00000E+000	9	...........	1488.69
	363	4.04647	-1.63046E-001	-2.54664E-006	0.00000E+000	-1.62987E-001	0.00000E+000	9	...........	1488.69
	364	4.05758	-1.64044E-001	-2.55773E-006	0.00000E+000	-1.63987E-001	0.00000E+000	9	...........	1488.69
	365	4.0687	-1.65044E-001	-2.56571E-006	0.00000E+000	-1.64987E-001	0.00000E+000	9	...........	1488.69
	366	4.07982	-1.66045E-001	-2.60157E-006	0.00000E+000	-1.65987E-001	0.00000E+000	9	...........	1488.69
	367	4.09093	-1.67046E-001	-2.59279E-006	0.00000E+000	-1.66988E-001	0.00000E+000	9	...........	1488.69
	368	4.10205	-1.68045E-001	-2.61246E-006	0.00000E+000	-1.67988E-001	0.00000E+000	9	...........	1488.69
	369	4.11317	-1.69046E-001	-2.62339E-006	0.00000E+000	-1.68988E-001	0.00000E+000	9	...........	1488.69
	370	4.12428	-1.70046E-001	-2.63894E-006	0.00000E+000	-1.69988E-001	0.00000E+000	9	...........	1488.69
	371	4.1354	-1.71045E-001	-2.66031E-006	0.00000E+000	-1.70989E-001	0.00000E+000	9	...........	1488.69
	372	4.14652	-1.72047E-001	-2.66964E-006	0.00000E+000	-1.71989E-001	0.00000E+000	9	...........	1488.69
	373	4.15763	-1.73048E-001	-2.68379E-006	0.00000E+000	-1.72989E-001	0.00000E+000	9	...........	1488.69
	374	4.16875	-1.74049E-001	-2.69698E-006	0.00000E+000	-1.73989E-001	0.00000E+000	9	...........	1488.69
	375	4.17987	-1.75050E-001	-2.72748E-006	0.00000E+000	-1.74990E-001	0.00000E+000	9	...........	1488.69
	376	4.19098	-1.76052E-001	-2.72492E-006	0.00000E+000	-1.75990E-001	0.00000E+000	9	...........	1488.69
	377	4.2021	-1.77049E-001	-2.74098E-006	0.00000E+000	-1.76990E-001	0.00000E+000	9	...........	1488.69
	378	4.21322	-1.78051E-001	-2.75000E-006	0.00000E+000	-1.77991E-001	0.00000E+000	9	...........	1488.69
	379	4.22433	-1.79051E-001	-2.76862E-006	0.00000E+000	-1.78991E-001	0.00000E+000	9	...........	1488.69
	380	4.23545	-1.80052E-001	-2.79385E-006	0.00000E+000	-1.79991E-001	0.00000E+000	9	...........	1488.69
	381	4.24657	-1.81055E-001	-2.80363E-006	0.00000E+000	-1.80991E-001	0.00000E+000	9	...........	1488.69
	382	4.25768	-1.82052E-001	-2.82053E-006	0.00000E+000	-1.81992E-001	0.00000E+000	9	...........	1488.69
	383	4.2688	-1.83053E-001	-2.83428E-006	0.00000E+000	-1.82992E-001	0.00000E+000	9	...........	1488.69
	384	4.27992	-1.84051E-001	-2.86187E-006	0.00000E+000	-1.83992E-001	0.00000E+000	9	...........	1488.69
	385	4.29103	-1.85052E-001	-2.88173E-006	0.00000E+000	-1.84992E-001	0.00000E+000	9	...........	1488.69
	386	4.30215	-1.86053E-001	-2.89608E-006	0.00000E+000	-1.85993E-001	0.00000E+000	9	...........	1488.69
	387	4.31327	-1.87053E-001	-2.91705E-006	0.00000E+000	-1.86993E-001	0.00000E+000	9	...........	1488.69
	388	4.32438	-1.88056E-001	-2.94905E-006	0.00000E+000	-1.87993E-001	0.00000E+000	9	...........	1488.69
	389	4.3355	-1.89054E-001	-2.94880E-006	0.00000E+000	-1.88993E-001	0.00000E+000	9	...........	1488.69
	390	4.34662	-1.90054E-001	-2.97403E-006	0.00000E+000	-1.89994E-001	0.00000E+000	9	...........	1488.69
	391	4.35773	-1.91055E-001	-2.99264E-006	0.00000E+000	-1.90994E-001	0.00000E+000	9	...........	1488.69
	392	4.36885	-1.92055E-001	-3.01376E-006	0.00000E+000	-1.91994E-001	0.00000E+000	9	...........	1488.69
	393	4.37997	-1.93059E-001	-3.05354E-006	0.00000E+000	-1.92995E-001	0.00000E+000	9	...........	1488.69
	394	4.39108	-1.94059E-001	-3.06538E-006	0.00000E+000	-1.93995E-001	0.00000E+000	9	...........	1488.69
	395	4.4022	-1.95059E-001	-3.09282E-006	0.00000E+000	-1.94995E-001	0.00000E+000	9	...........	1488.69
	396	4.41332	-1.96061E-001	-3.10235E-006	0.00000E+000	-1.95995E-001	0.00000E+000	9	...........	1488.69
	397	4.42443	-1.97059E-001	-3.13159E-006	0.00000E+000	-1.96996E-001	0.00000E+000	9	...........	1488.69
	398	4.43555	-1.98061E-001	-3.15938E-006	0.00000E+000	-1.97996E-001	0.00000E+000	9	...........	1488.69
	399	4.44667	-1.99063E-001	-3.17809E-006	0.00000E+000	-1.98996E-001	0.00000E+000	9	...........	1488.69
	400	4.45778	-2.00062E-001	-3.20237E-006	0.00000E+000	-1.99996E-001	0.00000E+000	9	...........	1488.69
CURVE2	TABLE
	Pt	T	Vf	Im	Vu	Sig	Ach	IERange	Over	Temp
	#	s	V vs. Ref.	A	V	V	V	#	bits	deg C
	401	4.4689	-1.99104E-001	1.70495E-006	0.00000E+000	-1.98996E-001	0.00000E+000	9	...........	1488.69
	402	4.48002	-1.98100E-001	1.94543E-006	0.00000E+000	-1.97996E-001	0.00000E+000	9	...........	1488.69
	403	4.49113	-1.97097E-001	2.10404E-006	0.00000E+000	-1.96996E-001	0.00000E+000	9	...........	1488.69
	404	4.50225	-1.96100E-001	2.18235E-006	0.00000E+000	-1.95995E-001	0.00000E+000	9	...........	1488.69
	405	4.51337	-1.95097E-001	2.28734E-006	0.00000E+000	-1.94995E-001	0.00000E+000	9	...........	1488.69
	406	4.52448	-1.94097E-001	2.33259E-006	0.00000E+000	-1.93995E-001	0.00000E+000	9	...........	1488.69
	407	4.5356	-1.93097E-001	2.40005E-006	0.00000E+000	-1.92995E-001	0.00000E+000	9	...........	1488.69
	408	4.54672	-1.92094E-001	2.44540E-006	0.00000E+000	-1.91994E-001	0.00000E+000	9	...........	1488.69
	409	4.55783	-1.91093E-001	2.47465E-006	0.00000E+000	-1.90994E-001	0.00000E+000	9	...........	1488.69
	410	4.56895	-1.90092E-001	2.51237E-006	0.00000E+000	-1.89994E-001	0.00000E+000	9	...........	1488.69
	411	4.58007	-1.89095E-001	2.53108E-006	0.00000E+000	-1.88993E-001	0.00000E+000	9	...........	1488.69
	412	4.59118	-1.88094E-001	2.57412E-006	0.00000E+000	-1.87993E-001	0.00000E+000	9	...........	1488.69
	413	4.6023	-1.87092E-001	2.58330E-006	0.00000E+000	-1.86993E-001	0.00000E+000	9	...........	1488.69
	414	4.61342	-1.86092E-001	2.62468E-006	0.00000E+000	-1.85993E-001	0.00000E+000	9	...........	1488.69
	415	4.62453	-1.85092E-001	2.63552E-006	0.00000E+000	-1.84992E-001	0.00000E+000	9	...........	1488.69
	416	4.63565	-1.84091E-001	2.65649E-006	0.00000E+000	-1.83992E-001	0.00000E+000	9	...........	1488.69
	417	4.64677	-1.83093E-001	2.66657E-006	0.00000E+000	-1.82992E-001	0.00000E+000	9	...........	1488.69
	418	4.65788	-1.82091E-001	2.68177E-006	0.00000E+000	-1.81992E-001	0.00000E+000	9	...........	1488.69
	419	4.669	-1.81093E-001	2.70409E-006	0.00000E+000	-1.80991E-001	0.00000E+000	9	...........	1488.69
	420	4.68012	-1.80091E-001	2.70439E-006	0.00000E+000	-1.79991E-001	0.00000E+000	9	...........	1488.69
	421	4.69123	-1.79090E-001	2.73910E-006	0.00000E+000	-1.78991E-001	0.00000E+000	9	...........	1488.69
	422	4.70235	-1.78088E-001	2.73750E-006	0.00000E+000	-1.77991E-001	0.00000E+000	9	...........	1488.69
	423	4.71347	-1.77087E-001	2.74527E-006	0.00000E+000	-1.76990E-001	0.00000E+000	9	...........	1488.69
	424	4.72458	-1.76089E-001	2.75516E-006	0.00000E+000	-1.75990E-001	0.00000E+000	9	...........	1488.69
	425	4.7357	-1.75088E-001	2.76790E-006	0.00000E+000	-1.74990E-001	0.00000E+000	9	...........	1488.69
	426	4.74682	-1.74086E-001	2.77377E-006	0.00000E+000	-1.73989E-001	0.00000E+000	9	...........	1488.69
	427	4.75793	-1.73086E-001	2.78711E-006	0.00000E+000	-1.72989E-001	0.00000E+000	9	...........	1488.69
	428	4.76905	-1.72085E-001	2.80713E-006	0.00000E+000	-1.71989E-001	0.00000E+000	9	...........	1488.69
	429	4.78017	-1.71084E-001	2.78726E-006	0.00000E+000	-1.70989E-001	0.00000E+000	9	...........	1488.69
	430	4.79128	-1.70083E-001	2.81149E-006	0.00000E+000	-1.69988E-001	0.00000E+000	9	...........	1488.69
	431	4.8024	-1.69084E-001	2.80738E-006	0.00000E+000	-1.68988E-001	0.00000E+000	9	...........	1488.69
	432	4.81352	-1.68083E-001	2.81380E-006	0.00000E+000	-1.67988E-001	0.00000E+000	9	...........	1488.69
	433	4.82463	-1.67085E-001	2.81756E-006	0.00000E+000	-1.66988E-001	0.00000E+000	9	...........	1488.69
	434	4.83575	-1.66083E-001	2.82594E-006	0.00000E+000	-1.65987E-001	0.00000E+000	9	...........	1488.69
	435	4.84687	-1.65082E-001	2.82077E-006	0.00000E+000	-1.64987E-001	0.00000E+000	9	...........	1488.69
	436	4.85798	-1.64084E-001	2.82253E-006	0.00000E+000	-1.63987E-001	0.00000E+000	9	...........	1488.69
	437	4.8691	-1.63085E-001	2.84194E-006	0.00000E+000	-1.62987E-001	0.00000E+000	9	...........	1488.69
	438	4.88022	-1.62083E-001	2.83662E-006	0.00000E+000	-1.61986E-001	0.00000E+000	9	...........	1488.69
	439	4.89133	-1.61082E-001	2.84144E-006	0.00000E+000	-1.60986E-001	0.00000E+000	9	...........	1488.69
	440	4.90245	-1.60080E-001	2.84445E-006	0.00000E+000	-1.59986E-001	0.00000E+000	9	...........	1488.69
	441	4.91357	-1.59079E-001	2.85242E-006	0.00000E+000	-1.58985E-001	0.00000E+000	9	...........	1488.69
	442	4.92468	-1.58079E-001	2.85122E-006	0.00000E+000	-1.57985E-001	0.00000E+000	9	...........	1488.69
	443	4.9358	-1.57069E-001	2.88543E-006	0.00000E+000	-1.56972E-001	0.00000E+000	9	...........	1488.69
	444	4.94692	-1.56068E-001	2.85037E-006	0.00000E+000	-1.55972E-001	0.00000E+000	9	...........	1488.69
	445	4.95803	-1.55068E-001	2.84364E-006	0.00000E+000	-1.54972E-001	0.00000E+000	9	...........	1488.69
	446	4.96915	-1.54066E-001	2.87073E-006	0.00000E+000	-1.53972E-001	0.00000E+000	9	...........	1488.69
	447	4.98027	-1.53067E-001	2.86080E-006	0.00000E+000	-1.52971E-001	0.00000E+000	9	...........	1488.69
	448	4.99138	-1.52066E-001	2.86617E-006	0.00000E+000	-1.51971E-001	0.00000E+000	9	...........	1488.69
	449	5.0025	-1.51067E-001	2.85292E-006	0.00000E+000	-1.50971E-001	0.00000E+000	9	...........	1488.69
	450	5.01362	-1.50068E-001	2.86863E-006	0.00000E+000	-1.49971E-001	0.00000E+000	9	...........	1488.69
	451	5.02473	-1.49068E-001	2.87143E-006	0.00000E+000	-1.48970E-001	0.00000E+000	9	...........	1488.69
	452	5.03585	-1.48068E-001	2.87595E-006	0.00000E+000	-1.47970E-001	0.00000E+000	9	...........	1488.69
	453	5.04697	-1.47068E-001	2.88999E-006	0.00000E+000	-1.46970E-001	0.00000E+000	9	...........	1488.69
	454	5.05808	-1.46066E-001	2.86040E-006	0.00000E+000	-1.45969E-001	0.00000E+000	9	...........	1488.69
	455	5.0692	-1.45064E-001	2.89346E-006	0.00000E+000	-1.44969E-001	0.00000E+000	9	...........	1488.69
	456	5.08032	-1.44066E-001	2.87655E-006	0.00000E+000	-1.43969E-001	0.00000E+000	9	...........	1488.69
	457	5.09143	-1.43068E-001	2.88719E-006	0.00000E+000	-1.42969E-001	0.00000E+000	9	...........	1488.69
	458	5.10255	-1.42068E-001	2.88618E-006	0.00000E+000	-1.41968E-001	0.00000E+000	9	...........	1488.69
	459	5.11367	-1.41066E-001	2.88342E-006	0.00000E+000	-1.40968E-001	0.00000E+000	9	...........	1488.69
	460	5.12478	-1.40066E-001	2.88628E-006	0.00000E+000	-1.39968E-001	0.00000E+000	9	...........	1488.69
	461	5.1359	-1.39066E-001	2.89381E-006	0.00000E+000	-1.38968E-001	0.00000E+000	9	...........	1488.69
	462	5.14702	-1.38065E-001	2.88081E-006	0.00000E+000	-1.37967E-001	0.00000E+000	9	...........	1488.69
	463	5.15813	-1.37064E-001	2.86837E-006	0.00000E+000	-1.36967E-001	0.00000E+000	9	...........	1488.69
	464	5.16925	-1.36063E-001	2.88749E-006	0.00000E+000	-1.35967E-001	0.00000E+000	9	...........	1488.69
	465	5.18037	-1.35062E-001	2.88478E-006	0.00000E+000	-1.34967E-001	0.00000E+000	9	...........	1488.69
	466	5.19148	-1.34063E-001	2.89732E-006	0.00000E+000	-1.33966E-001	0.00000E+000	9	...........	1488.69
	467	5.2026	-1.33062E-001	2.88704E-006	0.00000E+000	-1.32966E-001	0.00000E+000	9	...........	1488.69
	468	5.21372	-1.32059E-001	2.90203E-006	0.00000E+000	-1.31966E-001	0.00000E+000	9	...........	1488.69
	469	5.22483	-1.31061E-001	2.89416E-006	0.00000E+000	-1.30965E-001	0.00000E+000	9	...........	1488.69
	470	5.23595	-1.30062E-001	2.89817E-006	0.00000E+000	-1.29965E-001	0.00000E+000	9	...........	1488.69
	471	5.24707	-1.29059E-001	2.90324E-006	0.00000E+000	-1.28965E-001	0.00000E+000	9	...........	1488.69
	472	5.25818	-1.28057E-001	2.89993E-006	0.00000E+000	-1.27965E-001	0.00000E+000	9	...........	1488.69
	473	5.2693	-1.27057E-001	2.91197E-006	0.00000E+000	-1.26964E-001	0.00000E+000	9	...........	1488.69
	474	5.28042	-1.26057E-001	2.89667E-006	0.00000E+000	-1.25964E-001	0.00000E+000	9	...........	1488.69
	475	5.29153	-1.25056E-001	2.90444E-006	0.00000E+000	-1.24964E-001	0.00000E+000	9	...........	1488.69
	476	5.30265	-1.24056E-001	2.89998E-006	0.00000E+000	-1.23964E-001	0.00000E+000	9	...........	1488.69
	477	5.31377	-1.23056E-001	2.89647E-006	0.00000E+000	-1.22963E-001	0.00000E+000	9	...........	1488.69
	478	5.32488	-1.22057E-001	2.90264E-006	0.00000E+000	-1.21963E-001	0.00000E+000	9	...........	1488.69
	479	5.336	-1.21056E-001	2.90324E-006	0.00000E+000	-1.20963E-001	0.00000E+000	9	...........	1488.69
	480	5.34712	-1.20053E-001	2.91021E-006	0.00000E+000	-1.19963E-001	0.00000E+000	9	...........	1488.69
	481	5.35823	-1.19054E-001	2.90238E-006	0.00000E+000	-1.18962E-001	0.00000E+000	9	...........	1488.69
	482	5.36935	-1.18054E-001	2.89536E-006	0.00000E+000	-1.17962E-001	0.00000E+000	9	...........	1488.69
	483	5.38047	-1.17054E-001	2.91392E-006	0.00000E+000	-1.16962E-001	0.00000E+000	9	...........	1488.69
	484	5.39158	-1.16054E-001	2.90785E-006	0.00000E+000	-1.15961E-001	0.00000E+000	9	...........	1488.69
	485	5.4027	-1.15052E-001	2.91001E-006	0.00000E+000	-1.14961E-001	0.00000E+000	9	...........	1488.69
	486	5.41382	-1.14050E-001	2.90640E-006	0.00000E+000	-1.13961E-001	0.00000E+000	9	...........	1488.69
	487	5.42493	-1.13050E-001	2.90735E-006	0.00000E+000	-1.12961E-001	0.00000E+000	9	...........	1488.69
	488	5.43605	-1.12052E-001	2.90710E-006	0.00000E+000	-1.11960E-001	0.00000E+000	9	...........	1488.69
	489	5.44717	-1.11051E-001	2.91262E-006	0.00000E+000	-1.10960E-001	0.00000E+000	9	...........	1488.69
	490	5.45828	-1.10050E-001	2.91432E-006	0.00000E+000	-1.09960E-001	0.00000E+000	9	...........	1488.69
	491	5.4694	-1.09051E-001	2.90775E-006	0.00000E+000	-1.08960E-001	0.00000E+000	9	...........	1488.69
	492	5.48052	-1.08049E-001	2.91116E-006	0.00000E+000	-1.07959E-001	0.00000E+000	9	...........	1488.69
	493	5.49163	-1.07050E-001	2.90825E-006	0.00000E+000	-1.06959E-001	0.00000E+000	9	...........	1488.69
	494	5.50275	-1.06050E-001	2.91171E-006	0.00000E+000	-1.05959E-001	0.00000E+000	9	...........	1488.69
	495	5.51387	-1.05050E-001	2.92466E-006	0.00000E+000	-1.04958E-001	0.00000E+000	9	...........	1488.69
	496	5.52498	-1.04050E-001	2.90710E-006	0.00000E+000	-1.03958E-001	0.00000E+000	9	...........	1488.69
	497	5.5361	-1.03036E-001	2.94221E-006	0.00000E+000	-1.02945E-001	0.00000E+000	9	...........	1488.69
	498	5.54722	-1.02036E-001	2.92014E-006	0.00000E+000	-1.01945E-001	0.00000E+000	9	...........	1488.69
	499	5.55833	-1.01033E-001	2.91563E-006	0.00000E+000	-1.00945E-001	0.00000E+000	9	...........	1488.69
	500	5.56945	-1.00035E-001	2.91849E-006	0.00000E+000	-9.99447E-002	0.00000E+000	9	...........	1488.69
	501	5.58057	-9.90385E-002	2.90364E-006	0.00000E+000	-9.89444E-002	0.00000E+000	9	...........	1488.69
	502	5.59168	-9.80362E-002	2.93002E-006	0.00000E+000	-9.79441E-002	0.00000E+000	9	...........	1488.69
	503	5.6028	-9.70384E-002	2.91357E-006	0.00000E+000	-9.69439E-002	0.00000E+000	9	...........	1488.69
	504	5.61392	-9.60337E-002	2.92571E-006	0.00000E+000	-9.59436E-002	0.00000E+000	9	...........	1488.69
	505	5.62503	-9.50318E-002	2.92476E-006	0.00000E+000	-9.49433E-002	0.00000E+000	9	...........	1488.69
	506	5.63615	-9.40349E-002	2.91708E-006	0.00000E+000	-9.39431E-002	0.00000E+000	9	...........	1488.69
	507	5.64727	-9.30342E-002	2.93364E-006	0.00000E+000	-9.29428E-002	0.00000E+000	9	...........	1488.69
	508	5.65838	-9.20328E-002	2.92160E-006	0.00000E+000	-9.19425E-002	0.00000E+000	9	...........	1488.69
	509	5.6695	-9.10332E-002	2.92947E-006	0.00000E+000	-9.09423E-002	0.00000E+000	9	...........	1488.69
	510	5.68062	-9.00320E-002	2.92130E-006	0.00000E+000	-8.99420E-002	0.00000E+000	9	...........	1488.69
	511	5.69173	-8.90321E-002	2.93479E-006	0.00000E+000	-8.89417E-002	0.00000E+000	9	...........	1488.69
	512	5.70285	-8.80301E-002	2.92170E-006	0.00000E+000	-8.79415E-002	0.00000E+000	9	...........	1488.69
	513	5.71397	-8.70315E-002	2.92732E-006	0.00000E+000	-8.69412E-002	0.00000E+000	9	...........	1488.69
	514	5.72508	-8.60301E-002	2.92631E-006	0.00000E+000	-8.59409E-002	0.00000E+000	9	...........	1488.69
	515	5.7362	-8.50291E-002	2.92666E-006	0.00000E+000	-8.49406E-002	0.00000E+000	9	...........	1488.69
	516	5.74732	-8.40288E-002	2.93504E-006	0.00000E+000	-8.39404E-002	0.00000E+000	9	...........	1488.69
	517	5.75843	-8.30297E-002	2.93449E-006	0.00000E+000	-8.29401E-002	0.00000E+000	9	...........	1488.69
	518	5.76955	-8.20291E-002	2.93409E-006	0.00000E+000	-8.19398E-002	0.00000E+000	9	...........	1488.69
	519	5.78067	-8.10298E-002	2.93213E-006	0.00000E+000	-8.09396E-002	0.00000E+000	9	...........	1488.69
	520	5.79178	-8.00320E-002	2.93529E-006	0.00000E+000	-7.99393E-002	0.00000E+000	9	...........	1488.69
	521	5.8029	-7.90296E-002	2.92451E-006	0.00000E+000	-7.89390E-002	0.00000E+000	9	...........	1488.69
	522	5.81402	-7.80300E-002	2.94808E-006	0.00000E+000	-7.79388E-002	0.00000E+000	9	...........	1488.69
	523	5.82513	-7.70287E-002	2.94517E-006	0.00000E+000	-7.69385E-002	0.00000E+000	9	...........	1488.69
	524	5.83625	-7.60287E-002	2.94773E-006	0.00000E+000	-7.59382E-002	0.00000E+000	9	...........	1488.69
	525	5.84737	-7.50273E-002	2.96398E-006	0.00000E+000	-7.49380E-002	0.00000E+000	9	...........	1488.69
	526	5.85848	-7.40264E-002	2.95064E-006	0.00000E+000	-7.39377E-002	0.00000E+000	9	...........	1488.69
	527	5.8696	-7.30262E-002	2.96153E-006	0.00000E+000	-7.29374E-002	0.00000E+000	9	...........	1488.69
	528	5.88072	-7.20276E-002	2.96037E-006	0.00000E+000	-7.19372E-002	0.00000E+000	9	...........	1488.69
	529	5.89183	-7.10265E-002	2.95686E-006	0.00000E+000	-7.09369E-002	0.00000E+000	9	...........	1488.69
	530	5.90295	-7.00252E-002	2.96830E-006	0.00000E+000	-6.99366E-002	0.00000E+000	9	...........	1488.69
	531	5.91407	-6.90231E-002	2.96895E-006	0.00000E+000	-6.89364E-002	0.00000E+000	9	...........	1488.69
	532	5.92518	-6.80232E-002	2.96328E-006	0.00000E+000	-6.79361E-002	0.00000E+000	9	...........	1488.69
	533	5.9363	-6.70231E-002	2.97708E-006	0.00000E+000	-6.69358E-002	0.00000E+000	9	...........	1488.69
	534	5.94742	-6.60227E-002	2.98204E-006	0.00000E+000	-6.59356E-002	0.00000E+000	9	...........	1488.69
	535	5.95853	-6.50219E-002	2.97658E-006	0.00000E+000	-6.49353E-002	0.00000E+000	9	...........	1488.69
	536	5.96965	-6.40213E-002	2.98596E-006	0.00000E+000	-6.39350E-002	0.00000E+000	9	...........	1488.69
	537	5.98077	-6.30168E-002	2.98330E-006	0.00000E+000	-6.29348E-002	0.00000E+000	9	...........	1488.69
	538	5.99188	-6.20187E-002	2.98641E-006	0.00000E+000	-6.19345E-002	0.00000E+000	9	...........	1488.69
	539	6.003	-6.10187E-002	2.99283E-006	0.00000E+000	-6.09342E-002	0.00000E+000	9	...........	1488.69
	540	6.01412	-6.00197E-002	2.99885E-006	0.00000E+000	-5.99340E-002	0.00000E+000	9	...........	1488.69
	541	6.02523	-5.90163E-002	2.99639E-006	0.00000E+000	-5.89337E-002	0.00000E+000	9	...........	1488.69
	542	6.03635	-5.80184E-002	2.99634E-006	0.00000E+000	-5.79334E-002	0.00000E+000	9	...........	1488.69
	543	6.04747	-5.70158E-002	3.00487E-006	0.00000E+000	-5.69332E-002	0.00000E+000	9	...........	1488.69
	544	6.05858	-5.60146E-002	3.00562E-006	0.00000E+000	-5.59329E-002	0.00000E+000	9	...........	1488.69
	545	6.0697	-5.50158E-002	3.01314E-006	0.00000E+000	-5.49326E-002	0.00000E+000	9	...........	1488.69
	546	6.08082	-5.40139E-002	3.00085E-006	0.00000E+000	-5.39324E-002	0.00000E+000	9	...........	1488.69
	547	6.09193	-5.30152E-002	3.01891E-006	0.00000E+000	-5.29321E-002	0.00000E+000	9	...........	1488.69
	548	6.10305	-5.20138E-002	3.01234E-006	0.00000E+000	-5.19318E-002	0.00000E+000	9	...........	1488.69
	549	6.11417	-5.10138E-002	3.03291E-006	0.00000E+000	-5.09316E-002	0.00000E+000	9	...........	1488.69
	550	6.12528	-5.00124E-002	3.02734E-006	0.00000E+000	-4.99313E-002	0.00000E+000	9	...........	1488.69
	551	6.1364	-4.89991E-002	3.04379E-006	0.00000E+000	-4.89185E-002	0.00000E+000	9	...........	1488.69
	552	6.14752	-4.80006E-002	3.04229E-006	0.00000E+000	-4.79183E-002	0.00000E+000	9	...........	1488.69
	553	6.15863	-4.70008E-002	3.03878E-006	0.00000E+000	-4.69180E-002	0.00000E+000	9	...........	1488.69
	554	6.16975	-4.59981E-002	3.03697E-006	0.00000E+000	-4.59177E-002	0.00000E+000	9	...........	1488.69
	555	6.18087	-4.49964E-002	3.04374E-006	0.00000E+000	-4.49174E-002	0.00000E+000	9	...........	1488.69
	556	6.19198	-4.39989E-002	3.04098E-006	0.00000E+000	-4.39172E-002	0.00000E+000	9	...........	1488.69
	557	6.2031	-4.29950E-002	3.05383E-006	0.00000E+000	-4.29169E-002	0.00000E+000	9	...........	1488.69
	558	6.21422	-4.19956E-002	3.05277E-006	0.00000E+000	-4.19166E-002	0.00000E+000	9	...........	1488.69
	559	6.22533	-4.09948E-002	3.05247E-006	0.00000E+000	-4.09164E-002	0.00000E+000	9	...........	1488.69
	560	6.23645	-3.99948E-002	3.05317E-006	0.00000E+000	-3.99161E-002	0.00000E+000	9	...........	1488.69
	561	6.24757	-3.89951E-002	3.07399E-006	0.00000E+000	-3.89158E-002	0.00000E+000	9	...........	1488.69
	562	6.25868	-3.79912E-002	3.06752E-006	0.00000E+000	-3.79156E-002	0.00000E+000	9	...........	1488.69
	563	6.2698	-3.69911E-002	3.08337E-006	0.00000E+000	-3.69153E-002	0.00000E+000	9	...........	1488.69
	564	6.28092	-3.59915E-002	3.06576E-006	0.00000E+000	-3.59150E-002	0.00000E+000	9	...........	1488.69
	565	6.29203	-3.49932E-002	3.08453E-006	0.00000E+000	-3.49148E-002	0.00000E+000	9	...........	1488.69
	566	6.30315	-3.39913E-002	3.08794E-006	0.00000E+000	-3.39145E-002	0.00000E+000	9	...........	1488.69
	567	6.31427	-3.29903E-002	3.09471E-006	0.00000E+000	-3.29142E-002	0.00000E+000	9	...........	1488.69
	568	6.32538	-3.19899E-002	3.09697E-006	0.00000E+000	-3.19140E-002	0.00000E+000	9	...........	1488.69
	569	6.3365	-3.09881E-002	3.09777E-006	0.00000E+000	-3.09137E-002	0.00000E+000	9	...........	1488.69
	570	6.34762	-2.99856E-002	3.10324E-006	0.00000E+000	-2.99134E-002	0.00000E+000	9	...........	1488.69
	571	6.35873	-2.89874E-002	3.10805E-006	0.00000E+000	-2.89132E-002	0.00000E+000	9	...........	1488.69
	572	6.36985	-2.79865E-002	3.11693E-006	0.00000E+000	-2.79129E-002	0.00000E+000	9	...........	1488.69
	573	6.38097	-2.69871E-002	3.11924E-006	0.00000E+000	-2.69126E-002	0.00000E+000	9	...........	1488.69
	574	6.39208	-2.59853E-002	3.13499E-006	0.00000E+000	-2.59124E-002	0.00000E+000	9	...........	1488.69
	575	6.4032	-2.49851E-002	3.13454E-006	0.00000E+000	-2.49121E-002	0.00000E+000	9	...........	1488.69
	576	6.41432	-2.39850E-002	3.13885E-006	0.00000E+000	-2.39118E-002	0.00000E+000	9	...........	1488.69
	577	6.42543	-2.29833E-002	3.14638E-006	0.00000E+000	-2.29116E-002	0.00000E+000	9	...........	1488.69
	578	6.43655	-2.19820E-002	3.14899E-006	0.00000E+000	-2.19113E-002	0.00000E+000	9	...........	1488.69
	579	6.44767	-2.09843E-002	3.15887E-006	0.00000E+000	-2.09110E-002	0.00000E+000	9	...........	1488.69
	580	6.45878	-1.99816E-002	3.16654E-006	0.00000E+000	-1.99108E-002	0.00000E+000	9	...........	1488.69
	581	6.4699	-1.89804E-002	3.16524E-006	0.00000E+000	-1.89105E-002	0.00000E+000	9	...........	1488.69
	582	6.48102	-1.79770E-002	3.16454E-006	0.00000E+000	-1.79102E-002	0.00000E+000	9	...........	1488.69
	583	6.49213	-1.69783E-002	3.18420E-006	0.00000E+000	-1.69100E-002	0.00000E+000	9	...........	1488.69
	584	6.50325	-1.59816E-002	3.18224E-006	0.00000E+000	-1.59097E-002	0.00000E+000	9	...........	1488.69
	585	6.51437	-1.49804E-002	3.17788E-006	0.00000E+000	-1.49094E-002	0.00000E+000	9	...........	1488.69
	586	6.52548	-1.39795E-002	3.21149E-006	0.00000E+000	-1.39092E-002	0.00000E+000	9	...........	1488.69
	587	6.5366	-1.29765E-002	3.21736E-006	0.00000E+000	-1.29089E-002	0.00000E+000	9	...........	1488.69
	588	6.54772	-1.19771E-002	3.21696E-006	0.00000E+000	-1.19086E-002	0.00000E+000	9	...........	1488.69
	589	6.55883	-1.09764E-002	3.22187E-006	0.00000E+000	-1.09084E-002	0.00000E+000	9	...........	1488.69
	590	6.56995	-9.97552E-003	3.22889E-006	0.00000E+000	-9.90810E-003	0.00000E+000	9	...........	1488.69
	591	6.58107	-8.97472E-003	3.23356E-006	0.00000E+000	-8.90782E-003	0.00000E+000	9	...........	1488.69
	592	6.59218	-7.97399E-003	3.23612E-006	0.00000E+000	-7.90756E-003	0.00000E+000	9	...........	1488.69
	593	6.6033	-6.97569E-003	3.24996E-006	0.00000E+000	-6.90729E-003	0.00000E+000	9	...........	1488.69
	594	6.61442	-5.97300E-003	3.25729E-006	0.00000E+000	-5.90702E-003	0.00000E+000	9	...........	1488.69
	595	6.62553	-4.97055E-003	3.28397E-006	0.00000E+000	-4.90676E-003	0.00000E+000	9	...........	1488.69
	596	6.63665	-3.97114E-003	3.26361E-006	0.00000E+000	-3.90649E-003	0.00000E+000	9	...........	1488.69
	597	6.64777	-2.97229E-003	3.26953E-006	0.00000E+000	-2.90622E-003	0.00000E+000	9	...........	1488.69
	598	6.65888	-1.96974E-003	3.28207E-006	0.00000E+000	-1.90596E-003	0.00000E+000	9	...........	1488.69
	599	6.67	-9.71328E-004	3.28849E-006	0.00000E+000	-9.05685E-004	0.00000E+000	9	...........	1488.69
	600	6.68112	2.89248E-005	3.29375E-006	0.00000E+000	9.45777E-005	0.00000E+000	9	...........	1488.69
	601	6.69223	-9.31309E-004	-5.80817E-007	0.00000E+000	-9.05685E-004	0.00000E+000	9	...........	1488.69
	602	6.70335	-1.93185E-003	-7.56888E-007	0.00000E+000	-1.90596E-003	0.00000E+000	9	...........	1488.69
	603	6.71447	-2.93460E-003	-8.58969E-007	0.00000E+000	-2.90622E-003	0.00000E+000	9	...........	1488.69
	604	6.72558	-3.93300E-003	-9.06122E-007	0.00000E+000	-3.90649E-003	0.00000E+000	9	...........	1488.69
	605	6.7367	-4.92926E-003	-9.83975E-007	0.00000E+000	-4.90676E-003	0.00000E+000	9	...........	1488.69
	606	6.74782	-5.93163E-003	-1.03308E-006	0.00000E+000	-5.90702E-003	0.00000E+000	9	...........	1488.69
	607	6.75893	-6.93334E-003	-1.07718E-006	0.00000E+000	-6.90729E-003	0.00000E+000	9	...........	1488.69
	608	6.77005	-7.93400E-003	-1.11977E-006	0.00000E+000	-7.90756E-003	0.00000E+000	9	...........	1488.69
	609	6.78117	-8.93389E-003	-1.13351E-006	0.00000E+000	-8.90782E-003	0.00000E+000	9	...........	1488.69
	610	6.79228	-9.93467E-003	-1.17023E-006	0.00000E+000	-9.90810E-003	0.00000E+000	9	...........	1488.69
	611	6.8034	-1.09364E-002	-1.19501E-006	0.00000E+000	-1.09084E-002	0.00000E+000	9	...........	1488.69
	612	6.81452	-1.19371E-002	-1.22054E-006	0.00000E+000	-1.19086E-002	0.00000E+000	9	...........	1488.69
	613	6.82563	-1.29380E-002	-1.23584E-006	0.00000E+000	-1.29089E-002	0.00000E+000	9	...........	1488.69
	614	6.83675	-1.39387E-002	-1.27025E-006	0.00000E+000	-1.39092E-002	0.00000E+000	9	...........	1488.69
	615	6.84787	-1.49411E-002	-1.26970E-006	0.00000E+000	-1.49094E-002	0.00000E+000	9	...........	1488.69
	616	6.85898	-1.59419E-002	-1.29544E-006	0.00000E+000	-1.59097E-002	0.00000E+000	9	...........	1488.69
	617	6.8701	-1.69392E-002	-1.30993E-006	0.00000E+000	-1.69100E-002	0.00000E+000	9	...........	1488.69
	618	6.88122	-1.79383E-002	-1.33251E-006	0.00000E+000	-1.79102E-002	0.00000E+000	9	...........	1488.69
	619	6.89233	-1.89410E-002	-1.34234E-006	0.00000E+000	-1.89105E-002	0.00000E+000	9	...........	1488.69
	620	6.90345	-1.99434E-002	-1.35478E-006	0.00000E+000	-1.99108E-002	0.00000E+000	9	...........	1488.69
	621	6.91457	-2.09447E-002	-1.36556E-006	0.00000E+000	-2.09110E-002	0.00000E+000	9	...........	1488.69
	622	6.92568	-2.19433E-002	-1.37590E-006	0.00000E+000	-2.19113E-002	0.00000E+000	9	...........	1488.69
	623	6.9368	-2.29440E-002	-1.38292E-006	0.00000E+000	-2.29116E-002	0.00000E+000	9	...........	1488.69
	624	6.94792	-2.39452E-002	-1.39516E-006	0.00000E+000	-2.39118E-002	0.00000E+000	9	...........	1488.69
	625	6.95903	-2.49469E-002	-1.41231E-006	0.00000E+000	-2.49121E-002	0.00000E+000	9	...........	1488.69
	626	6.97015	-2.59465E-002	-1.41517E-006	0.00000E+000	-2.59124E-002	0.00000E+000	9	...........	1488.69
	627	6.98127	-2.69474E-002	-1.42486E-006	0.00000E+000	-2.69126E-002	0.00000E+000	9	...........	1488.69
	628	6.99238	-2.79478E-002	-1.43840E-006	0.00000E+000	-2.79129E-002	0.00000E+000	9	...........	1488.69
	629	7.0035	-2.89476E-002	-1.44683E-006	0.00000E+000	-2.89132E-002	0.00000E+000	9	...........	1488.69
	630	7.01462	-2.99454E-002	-1.45054E-006	0.00000E+000	-2.99134E-002	0.00000E+000	9	...........	1488.69
	631	7.02573	-3.09470E-002	-1.46228E-006	0.00000E+000	-3.09137E-002	0.00000E+000	9	...........	1488.69
	632	7.03685	-3.19501E-002	-1.47547E-006	0.00000E+000	-3.19140E-002	0.00000E+000	9	...........	1488.69
	633	7.04797	-3.29510E-002	-1.46604E-006	0.00000E+000	-3.29142E-002	0.00000E+000	9	...........	1488.69
	634	7.05908	-3.39517E-002	-1.48380E-006	0.00000E+000	-3.39145E-002	0.00000E+000	9	...........	1488.69
	635	7.0702	-3.49526E-002	-1.47918E-006	0.00000E+000	-3.49148E-002	0.00000E+000	9	...........	1488.69
	636	7.08132	-3.59500E-002	-1.49002E-006	0.00000E+000	-3.59150E-002	0.00000E+000	9	...........	1488.69
	637	7.09243	-3.69524E-002	-1.49669E-006	0.00000E+000	-3.69153E-002	0.00000E+000	9	...........	1488.69
	638	7.10355	-3.79521E-002	-1.50050E-006	0.00000E+000	-3.79156E-002	0.00000E+000	9	...........	1488.69
	639	7.11467	-3.89554E-002	-1.52674E-006	0.00000E+000	-3.89158E-002	0.00000E+000	9	...........	1488.69
	640	7.12578	-3.99572E-002	-1.51856E-006	0.00000E+000	-3.99161E-002	0.00000E+000	9	...........	1488.69
	641	7.1369	-4.09538E-002	-1.52864E-006	0.00000E+000	-4.09164E-002	0.00000E+000	9	...........	1488.69
	642	7.14802	-4.19568E-002	-1.53311E-006	0.00000E+000	-4.19166E-002	0.00000E+000	9	...........	1488.69
	643	7.15913	-4.29558E-002	-1.53777E-006	0.00000E+000	-4.29169E-002	0.00000E+000	9	...........	1488.69
	644	7.17025	-4.39585E-002	-1.54710E-006	0.00000E+000	-4.39172E-002	0.00000E+000	9	...........	1488.69
	645	7.18137	-4.49581E-002	-1.55387E-006	0.00000E+000	-4.49174E-002	0.00000E+000	9	...........	1488.69
	646	7.19248	-4.59607E-002	-1.55954E-006	0.00000E+000	-4.59177E-002	0.00000E+000	9	...........	1488.69
	647	7.2036	-4.69624E-002	-1.56792E-006	0.00000E+000	-4.69180E-002	0.00000E+000	9	...........	1488.69
	648	7.21472	-4.79626E-002	-1.57630E-006	0.00000E+000	-4.79183E-002	0.00000E+000	9	...........	1488.69
	649	7.22583	-4.89596E-002	-1.57931E-006	0.00000E+000	-4.89185E-002	0.00000E+000	9	...........	1488.69
	650	7.23695	-4.99745E-002	-1.62480E-006	0.00000E+000	-4.99313E-002	0.00000E+000	9	...........	1488.69
	651	7.24807	-5.09750E-002	-1.60364E-006	0.00000E+000	-5.09316E-002	0.00000E+000	9	...........	1488.69
	652	7.25918	-5.19784E-002	-1.61818E-006	0.00000E+000	-5.19318E-002	0.00000E+000	9	...........	1488.69
	653	7.2703	-5.29789E-002	-1.63017E-006	0.00000E+000	-5.29321E-002	0.00000E+000	9	...........	1488.69
	654	7.28142	-5.39784E-002	-1.63739E-006	0.00000E+000	-5.39324E-002	0.00000E+000	9	...........	1488.69
	655	7.29253	-5.49784E-002	-1.63413E-006	0.00000E+000	-5.49326E-002	0.00000E+000	9	...........	1488.69
	656	7.30365	-5.59792E-002	-1.64858E-006	0.00000E+000	-5.59329E-002	0.00000E+000	9	...........	1488.69
	657	7.31477	-5.69816E-002	-1.66900E-006	0.00000E+000	-5.69332E-002	0.00000E+000	9	...........	1488.69
	658	7.32588	-5.79834E-002	-1.67818E-006	0.00000E+000	-5.79334E-002	0.00000E+000	9	...........	1488.69
	659	7.337	-5.89808E-002	-1.68751E-006	0.00000E+000	-5.89337E-002	0.00000E+000	9	...........	1488.69
	660	7.34812	-5.99830E-002	-1.69162E-006	0.00000E+000	-5.99340E-002	0.00000E+000	9	...........	1488.69
	661	7.35923	-6.09827E-002	-1.71419E-006	0.00000E+000	-6.09342E-002	0.00000E+000	9	...........	1488.69
	662	7.37035	-6.19814E-002	-1.72182E-006	0.00000E+000	-6.19345E-002	0.00000E+000	9	...........	1488.69
	663	7.38147	-6.29825E-002	-1.74193E-006	0.00000E+000	-6.29348E-002	0.00000E+000	9	...........	1488.69
	664	7.39258	-6.39845E-002	-1.74825E-006	0.00000E+000	-6.39350E-002	0.00000E+000	9	...........	1488.69
	665	7.4037	-6.49858E-002	-1.74976E-006	0.00000E+000	-6.49353E-002	0.00000E+000	9	...........	1488.69
	666	7.41482	-6.59847E-002	-1.76265E-006	0.00000E+000	-6.59356E-002	0.00000E+000	9	...........	1488.69
	667	7.42593	-6.69840E-002	-1.75718E-006	0.00000E+000	-6.69358E-002	0.00000E+000	9	...........	1488.69
	668	7.43705	-6.79843E-002	-1.77534E-006	0.00000E+000	-6.79361E-002	0.00000E+000	9	...........	1488.69
	669	7.44817	-6.89841E-002	-1.76551E-006	0.00000E+000	-6.89364E-002	0.00000E+000	9	...........	1488.69
	670	7.45928	-6.99849E-002	-1.78663E-006	0.00000E+000	-6.99366E-002	0.00000E+000	9	...........	1488.69
	671	7.4704	-7.09868E-002	-1.78728E-006	0.00000E+000	-7.09369E-002	0.00000E+000	9	...........	1488.69
	672	7.48152	-7.19863E-002	-1.80770E-006	0.00000E+000	-7.19372E-002	0.00000E+000	9	...........	1488.69
	673	7.49263	-7.29880E-002	-1.79922E-006	0.00000E+000	-7.29374E-002	0.00000E+000	9	...........	1488.69
	674	7.50375	-7.39865E-002	-1.80649E-006	0.00000E+000	-7.39377E-002	0.00000E+000	9	...........	1488.69
	675	7.51487	-7.49866E-002	-1.81703E-006	0.00000E+000	-7.49380E-002	0.00000E+000	9	...........	1488.69
	676	7.52598	-7.59882E-002	-1.82566E-006	0.00000E+000	-7.59382E-002	0.00000E+000	9	...........	1488.69
	677	7.5371	-7.69878E-002	-1.83554E-006	0.00000E+000	-7.69385E-002	0.00000E+000	9	...........	1488.69
	678	7.54822	-7.79889E-002	-1.83634E-006	0.00000E+000	-7.79388E-002	0.00000E+000	9	...........	1488.69
	679	7.55933	-7.89892E-002	-1.85114E-006	0.00000E+000	-7.89390E-002	0.00000E+000	9	...........	1488.69
	680	7.57045	-7.99913E-002	-1.84798E-006	0.00000E+000	-7.99393E-002	0.00000E+000	9	...........	1488.69
	681	7.58157	-8.09936E-002	-1.86222E-006	0.00000E+000	-8.09396E-002	0.00000E+000	9	...........	1488.69
	682	7.59268	-8.19907E-002	-1.87482E-006	0.00000E+000	-8.19398E-002	0.00000E+000	9	...........	1488.69
	683	7.6038	-8.29907E-002	-1.86819E-006	0.00000E+000	-8.29401E-002	0.00000E+000	9	...........	1488.69
	684	7.61492	-8.39906E-002	-1.88204E-006	0.00000E+000	-8.39404E-002	0.00000E+000	9	...........	1488.69
	685	7.62603	-8.49921E-002	-1.88921E-006	0.00000E+000	-8.49406E-002	0.00000E+000	9	...........	1488.69
	686	7.63715	-8.59902E-002	-1.90155E-006	0.00000E+000	-8.59409E-002	0.00000E+000	9	...........	1488.69
	687	7.64827	-8.69911E-002	-1.89799E-006	0.00000E+000	-8.69412E-002	0.00000E+000	9	...........	1488.69
	688	7.65938	-8.79904E-002	-1.90742E-006	0.00000E+000	-8.79415E-002	0.00000E+000	9	...........	1488.69
	689	7.6705	-8.89924E-002	-1.91881E-006	0.00000E+000	-8.89417E-002	0.00000E+000	9	...........	1488.69
	690	7.68162	-8.99918E-002	-1.92438E-006	0.00000E+000	-8.99420E-002	0.00000E+000	9	...........	1488.69
	691	7.69273	-9.09923E-002	-1.93642E-006	0.00000E+000	-9.09423E-002	0.00000E+000	9	...........	1488.69
	692	7.70385	-9.19932E-002	-1.92332E-006	0.00000E+000	-9.19425E-002	0.00000E+000	9	...........	1488.69
	693	7.71497	-9.29928E-002	-1.95487E-006	0.00000E+000	-9.29428E-002	0.00000E+000	9	...........	1488.69
	694	7.72608	-9.39929E-002	-1.94324E-006	0.00000E+000	-9.39431E-002	0.00000E+000	9	...........	1488.69
	695	7.7372	-9.49929E-002	-1.96180E-006	0.00000E+000	-9.49433E-002	0.00000E+000	9	...........	1488.69
	696	7.74832	-9.59928E-002	-1.95708E-006	0.00000E+000	-9.59436E-002	0.00000E+000	9	...........	1488.69
	697	7.75943	-9.69956E-002	-1.97188E-006	0.00000E+000	-9.69439E-002	0.00000E+000	9	...........	1488.69
	698	7.77055	-9.79967E-002	-1.96701E-006	0.00000E+000	-9.79441E-002	0.00000E+000	9	...........	1488.69
	699	7.78167	-9.89980E-002	-1.98196E-006	0.00000E+000	-9.89444E-002	0.00000E+000	9	...........	1488.69
	700	7.79278	-9.99955E-002	-1.98773E-006	0.00000E+000	-9.99447E-002	0.00000E+000	9	...........	1488.69
	701	7.8039	-1.00995E-001	-1.98477E-006	0.00000E+000	-1.00945E-001	0.00000E+000	9	...........	1488.69
	702	7.81502	-1.01995E-001	-2.00865E-006	0.00000E+000	-1.01945E-001	0.00000E+000	9	...........	1488.69
	703	7.82613	-1.02996E-001	-2.01331E-006	0.00000E+000	-1.02945E-001	0.00000E+000	9	...........	1488.69
	704	7.83725	-1.04010E-001	-2.04151E-006	0.00000E+000	-1.03958E-001	0.00000E+000	9	...........	1488.69
	705	7.84837	-1.05010E-001	-2.01903E-006	0.00000E+000	-1.04958E-001	0.00000E+000	9	...........	1488.69
	706	7.85948	-1.06010E-001	-2.03499E-006	0.00000E+000	-1.05959E-001	0.00000E+000	9	...........	1488.69
	707	7.8706	-1.07009E-001	-2.03213E-006	0.00000E+000	-1.06959E-001	0.00000E+000	9	...........	1488.69
	708	7.88172	-1.08009E-001	-2.04838E-006	0.00000E+000	-1.07959E-001	0.00000E+000	9	...........	1488.69
	709	7.89283	-1.09011E-001	-2.06604E-006	0.00000E+000	-1.08960E-001	0.00000E+000	9	...........	1488.69
	710	7.90395	-1.10012E-001	-2.05776E-006	0.00000E+000	-1.09960E-001	0.00000E+000	9	...........	1488.69
	711	7.91507	-1.11013E-001	-2.06905E-006	0.00000E+000	-1.10960E-001	0.00000E+000	9	...........	1488.69
	712	7.92618	-1.12014E-001	-2.07476E-006	0.00000E+000	-1.11960E-001	0.00000E+000	9	...........	1488.69
	713	7.9373	-1.13011E-001	-2.07853E-006	0.00000E+000	-1.12961E-001	0.00000E+000	9	...........	1488.69
	714	7.94842	-1.14011E-001	-2.08424E-006	0.00000E+000	-1.13961E-001	0.00000E+000	9	...........	1488.69
	715	7.95953	-1.15014E-001	-2.09342E-006	0.00000E+000	-1.14961E-001	0.00000E+000	9	...........	1488.69
	716	7.97065	-1.16017E-001	-2.10476E-006	0.00000E+000	-1.15961E-001	0.00000E+000	9	...........	1488.69
	717	7.98177	-1.17017E-001	-2.10782E-006	0.00000E+000	-1.16962E-001	0.00000E+000	9	...........	1488.69
	718	7.99288	-1.18016E-001	-2.12623E-006	0.00000E+000	-1.17962E-001	0.00000E+000	9	...........	1488.69
	719	8.004	-1.19016E-001	-2.11274E-006	0.00000E+000	-1.18962E-001	0.00000E+000	9	...........	1488.69
	720	8.01512	-1.20014E-001	-2.13947E-006	0.00000E+000	-1.19963E-001	0.00000E+000	9	...........	1488.69
	721	8.02623	-1.21017E-001	-2.14885E-006	0.00000E+000	-1.20963E-001	0.00000E+000	9	...........	1488.69
	722	8.03735	-1.22018E-001	-2.15548E-006	0.00000E+000	-1.21963E-001	0.00000E+000	9	...........	1488.69
	723	8.04847	-1.23017E-001	-2.15272E-006	0.00000E+000	-1.22963E-001	0.00000E+000	9	...........	1488.69
	724	8.05958	-1.24019E-001	-2.17434E-006	0.00000E+000	-1.23964E-001	0.00000E+000	9	...........	1488.69
	725	8.0707	-1.25017E-001	-2.17519E-006	0.00000E+000	-1.24964E-001	0.00000E+000	9	...........	1488.69
	726	8.08182	-1.26018E-001	-2.18106E-006	0.00000E+000	-1.25964E-001	0.00000E+000	9	...........	1488.69
	727	8.09293	-1.27017E-001	-2.19636E-006	0.00000E+000	-1.26964E-001	0.00000E+000	9	...........	1488.69
	728	8.10405	-1.28019E-001	-2.20569E-006	0.00000E+000	-1.27965E-001	0.00000E+000	9	...........	1488.69
	729	8.11517	-1.29021E-001	-2.20810E-006	0.00000E+000	-1.28965E-001	0.00000E+000	9	...........	1488.69
	730	8.12628	-1.30022E-001	-2.21768E-006	0.00000E+000	-1.29965E-001	0.00000E+000	9	...........	1488.69
	731	8.1374	-1.31020E-001	-2.23303E-006	0.00000E+000	-1.30965E-001	0.00000E+000	9	...........	1488.69
	732	8.14852	-1.32020E-001	-2.23794E-006	0.00000E+000	-1.31966E-001	0.00000E+000	9	...........	1488.69
	733	8.15963	-1.33020E-001	-2.25129E-006	0.00000E+000	-1.32966E-001	0.00000E+000	9	...........	1488.69
	734	8.17075	-1.34023E-001	-2.25625E-006	0.00000E+000	-1.33966E-001	0.00000E+000	9	...........	1488.69
	735	8.18187	-1.35021E-001	-2.26323E-006	0.00000E+000	-1.34967E-001	0.00000E+000	9	...........	1488.69
	736	8.19298	-1.36023E-001	-2.27993E-006	0.00000E+000	-1.35967E-001	0.00000E+000	9	...........	1488.69
	737	8.2041	-1.37023E-001	-2.28038E-006	0.00000E+000	-1.36967E-001	0.00000E+000	9	...........	1488.69
	738	8.21522	-1.38024E-001	-2.28680E-006	0.00000E+000	-1.37967E-001	0.00000E+000	9	...........	1488.69
	739	8.22633	-1.39024E-001	-2.30210E-006	0.00000E+000	-1.38968E-001	0.00000E+000	9	...........	1488.69
	740	8.23745	-1.40025E-001	-2.31013E-006	0.00000E+000	-1.39968E-001	0.00000E+000	9	...........	1488.69
	741	8.24857	-1.41024E-001	-2.31168E-006	0.00000E+000	-1.40968E-001	0.00000E+000	9	...........	1488.69
	742	8.25968	-1.42026E-001	-2.33877E-006	0.00000E+000	-1.41968E-001	0.00000E+000	9	...........	1488.69
	743	8.2708	-1.43028E-001	-2.32939E-006	0.00000E+000	-1.42969E-001	0.00000E+000	9	...........	1488.69
	744	8.28192	-1.44027E-001	-2.35578E-006	0.00000E+000	-1.43969E-001	0.00000E+000	9	...........	1488.69
	745	8.29303	-1.45026E-001	-2.35317E-006	0.00000E+000	-1.44969E-001	0.00000E+000	9	...........	1488.69
	746	8.30415	-1.46028E-001	-2.36516E-006	0.00000E+000	-1.45969E-001	0.00000E+000	9	...........	1488.69
	747	8.31527	-1.47031E-001	-2.37273E-006	0.00000E+000	-1.46970E-001	0.00000E+000	9	...........	1488.69
	748	8.32638	-1.48030E-001	-2.38933E-006	0.00000E+000	-1.47970E-001	0.00000E+000	9	...........	1488.69
	749	8.3375	-1.49030E-001	-2.40524E-006	0.00000E+000	-1.48970E-001	0.00000E+000	9	...........	1488.69
	750	8.34862	-1.50031E-001	-2.40127E-006	0.00000E+000	-1.49971E-001	0.00000E+000	9	...........	1488.69
	751	8.35973	-1.51032E-001	-2.42039E-006	0.00000E+000	-1.50971E-001	0.00000E+000	9	...........	1488.69
	752	8.37085	-1.52030E-001	-2.41843E-006	0.00000E+000	-1.51971E-001	0.00000E+000	9	...........	1488.69
	753	8.38197	-1.53029E-001	-2.43057E-006	0.00000E+000	-1.52971E-001	0.00000E+000	9	...........	1488.69
	754	8.39308	-1.54032E-001	-2.45058E-006	0.00000E+000	-1.53972E-001	0.00000E+000	9	...........	1488.69
	755	8.4042	-1.55033E-001	-2.45124E-006	0.00000E+000	-1.54972E-001	0.00000E+000	9	...........	1488.69
	756	8.41532	-1.56033E-001	-2.46959E-006	0.00000E+000	-1.55972E-001	0.00000E+000	9	...........	1488.69
	757	8.42643	-1.57033E-001	-2.47496E-006	0.00000E+000	-1.56972E-001	0.00000E+000	9	...........	1488.69
	758	8.43755	-1.58043E-001	-2.50310E-006	0.00000E+000	-1.57985E-001	0.00000E+000	9	...........	1488.69
	759	8.44867	-1.59044E-001	-2.50521E-006	0.00000E+000	-1.58985E-001	0.00000E+000	9	...........	1488.69
	760	8.45978	-1.60046E-001	-2.51168E-006	0.00000E+000	-1.59986E-001	0.00000E+000	9	...........	1488.69
	761	8.4709	-1.61047E-001	-2.52277E-006	0.00000E+000	-1.60986E-001	0.00000E+000	9	...........	1488.69
	762	8.48202	-1.62046E-001	-2.53807E-006	0.00000E+000	-1.61986E-001	0.00000E+000	9	...........	1488.69
	763	8.49313	-1.63049E-001	-2.56445E-006	0.00000E+000	-1.62987E-001	0.00000E+000	9	...........	1488.69
	764	8.50425	-1.64048E-001	-2.55066E-006	0.00000E+000	-1.63987E-001	0.00000E+000	9	...........	1488.69
	765	8.51537	-1.65046E-001	-2.57674E-006	0.00000E+000	-1.64987E-001	0.00000E+000	9	...........	1488.69
	766	8.52648	-1.66045E-001	-2.59189E-006	0.00000E+000	-1.65987E-001	0.00000E+000	9	...........	1488.69
	767	8.5376	-1.67047E-001	-2.61045E-006	0.00000E+000	-1.66988E-001	0.00000E+000	9	...........	1488.69
	768	8.54872	-1.68048E-001	-2.61923E-006	0.00000E+000	-1.67988E-001	0.00000E+000	9	...........	1488.69
	769	8.55983	-1.69049E-001	-2.62470E-006	0.00000E+000	-1.68988E-001	0.00000E+000	9	...........	1488.69
	770	8.57095	-1.70046E-001	-2.63473E-006	0.00000E+000	-1.69988E-001	0.00000E+000	9	...........	1488.69
	771	8.58207	-1.71048E-001	-2.65525E-006	0.00000E+000	-1.70989E-001	0.00000E+000	9	...........	1488.69
	772	8.59318	-1.72049E-001	-2.66990E-006	0.00000E+000	-1.71989E-001	0.00000E+000	9	...........	1488.69
	773	8.6043	-1.73051E-001	-2.68038E-006	0.00000E+000	-1.72989E-001	0.00000E+000	9	...........	1488.69
	774	8.61542	-1.74051E-001	-2.70130E-006	0.00000E+000	-1.73989E-001	0.00000E+000	9	...........	1488.69
	775	8.62653	-1.75053E-001	-2.70842E-006	0.00000E+000	-1.74990E-001	0.00000E+000	9	...........	1488.69
	776	8.63765	-1.76053E-001	-2.73912E-006	0.00000E+000	-1.75990E-001	0.00000E+000	9	...........	1488.69
	777	8.64877	-1.77049E-001	-2.72889E-006	0.00000E+000	-1.76990E-001	0.00000E+000	9	...........	1488.69
	778	8.65988	-1.78052E-001	-2.75658E-006	0.00000E+000	-1.77991E-001	0.00000E+000	9	...........	1488.69
	779	8.671	-1.79054E-001	-2.77107E-006	0.00000E+000	-1.78991E-001	0.00000E+000	9	...........	1488.69
	780	8.68212	-1.80054E-001	-2.78617E-006	0.00000E+000	-1.79991E-001	0.00000E+000	9	...........	1488.69
	781	8.69323	-1.81056E-001	-2.81105E-006	0.00000E+000	-1.80991E-001	0.00000E+000	9	...........	1488.69
	782	8.70435	-1.82054E-001	-2.81030E-006	0.00000E+000	-1.81992E-001	0.00000E+000	9	...........	1488.69
	783	8.71547	-1.83056E-001	-2.84692E-006	0.00000E+000	-1.82992E-001	0.00000E+000	9	...........	1488.69
	784	8.72658	-1.84054E-001	-2.84747E-006	0.00000E+000	-1.83992E-001	0.00000E+000	9	...........	1488.69
	785	8.7377	-1.85055E-001	-2.88003E-006	0.00000E+000	-1.84992E-001	0.00000E+000	9	...........	1488.69
	786	8.74882	-1.86055E-001	-2.89101E-006	0.00000E+000	-1.85993E-001	0.00000E+000	9	...........	1488.69
	787	8.75993	-1.87055E-001	-2.90932E-006	0.00000E+000	-1.86993E-001	0.00000E+000	9	...........	1488.69
	788	8.77105	-1.88057E-001	-2.92262E-006	0.00000E+000	-1.87993E-001	0.00000E+000	9	...........	1488.69
	789	8.78217	-1.89057E-001	-2.94900E-006	0.00000E+000	-1.88993E-001	0.00000E+000	9	...........	1488.69
	790	8.79328	-1.90056E-001	-2.97980E-006	0.00000E+000	-1.89994E-001	0.00000E+000	9	...........	1488.69
	791	8.8044	-1.91056E-001	-2.98692E-006	0.00000E+000	-1.90994E-001	0.00000E+000	9	...........	1488.69
	792	8.81552	-1.92056E-001	-3.02379E-006	0.00000E+000	-1.91994E-001	0.00000E+000	9	...........	1488.69
	793	8.82663	-1.93057E-001	-3.03663E-006	0.00000E+000	-1.92995E-001	0.00000E+000	9	...........	1488.69
	794	8.83775	-1.94060E-001	-3.05665E-006	0.00000E+000	-1.93995E-001	0.00000E+000	9	...........	1488.69
	795	8.84887	-1.95060E-001	-3.08494E-006	0.00000E+000	-1.94995E-001	0.00000E+000	9	...........	1488.69
	796	8.85998	-1.96060E-001	-3.10375E-006	0.00000E+000	-1.95995E-001	0.00000E+000	9	...........	1488.69
	797	8.8711	-1.97058E-001	-3.11800E-006	0.00000E+000	-1.96996E-001	0.00000E+000	9	...........	1488.69
	798	8.88222	-1.98060E-001	-3.14850E-006	0.00000E+000	-1.97996E-001	0.00000E+000	9	...........	1488.69
	799	8.89333	-1.99061E-001	-3.18527E-006	0.00000E+000	-1.98996E-001	0.00000E+000	9	...........	1488.69
	800	8.90445	-2.00061E-001	-3.20333E-006	0.00000E+000	-1.99996E-001	0.00000E+000	9	...........	1488.69
CURVE3	TABLE
	Pt	T	Vf	Im	Vu	Sig	Ach	IERange	Over	Temp
	#	s	V vs. Ref.	A	V	V	V	#	bits	deg C
	801	8.91557	-1.99102E-001	1.69968E-006	0.00000E+000	-1.98996E-001	0.00000E+000	9	...........	1488.69
	802	8.92668	-1.98101E-001	1.96043E-006	0.00000E+000	-1.97996E-001	0.00000E+000	9	...........	1488.69
	803	8.9378	-1.97100E-001	2.09411E-006	0.00000E+000	-1.96996E-001	0.00000E+000	9	...........	1488.69
	804	8.94892	-1.96099E-001	2.19900E-006	0.00000E+000	-1.95995E-001	0.00000E+000	9	...........	1488.69
	805	8.96003	-1.95098E-001	2.27334E-006	0.00000E+000	-1.94995E-001	0.00000E+000	9	...........	1488.69
	806	8.97115	-1.94098E-001	2.34177E-006	0.00000E+000	-1.93995E-001	0.00000E+000	9	...........	1488.69
	807	8.98227	-1.93097E-001	2.39604E-006	0.00000E+000	-1.92995E-001	0.00000E+000	9	...........	1488.69
	808	8.99338	-1.92096E-001	2.42609E-006	0.00000E+000	-1.91994E-001	0.00000E+000	9	...........	1488.69
	809	9.0045	-1.91094E-001	2.48965E-006	0.00000E+000	-1.90994E-001	0.00000E+000	9	...........	1488.69
	810	9.01562	-1.90094E-001	2.51001E-006	0.00000E+000	-1.89994E-001	0.00000E+000	9	...........	1488.69
	811	9.02673	-1.89096E-001	2.53996E-006	0.00000E+000	-1.88993E-001	0.00000E+000	9	...........	1488.69
	812	9.03785	-1.88096E-001	2.56384E-006	0.00000E+000	-1.87993E-001	0.00000E+000	9	...........	1488.69
	813	9.04897	-1.87095E-001	2.59313E-006	0.00000E+000	-1.86993E-001	0.00000E+000	9	...........	1488.69
	814	9.06008	-1.86093E-001	2.62102E-006	0.00000E+000	-1.85993E-001	0.00000E+000	9	...........	1488.69
	815	9.0712	-1.85094E-001	2.62724E-006	0.00000E+000	-1.84992E-001	0.00000E+000	9	...........	1488.69
	816	9.08232	-1.84092E-001	2.66140E-006	0.00000E+000	-1.83992E-001	0.00000E+000	9	...........	1488.69
	817	9.09343	-1.83094E-001	2.65689E-006	0.00000E+000	-1.82992E-001	0.00000E+000	9	...........	1488.69
	818	9.10455	-1.82093E-001	2.68227E-006	0.00000E+000	-1.81992E-001	0.00000E+000	9	...........	1488.69
	819	9.11567	-1.81095E-001	2.70745E-006	0.00000E+000	-1.80991E-001	0.00000E+000	9	...........	1488.69
	820	9.12678	-1.80094E-001	2.70825E-006	0.00000E+000	-1.79991E-001	0.00000E+000	9	...........	1488.69
	821	9.1379	-1.79091E-001	2.72100E-006	0.00000E+000	-1.78991E-001	0.00000E+000	9	...........	1488.69
	822	9.14902	-1.78092E-001	2.73991E-006	0.00000E+000	-1.77991E-001	0.00000E+000	9	...........	1488.69
	823	9.16013	-1.77088E-001	2.75165E-006	0.00000E+000	-1.76990E-001	0.00000E+000	9	...........	1488.69
	824	9.17125	-1.76091E-001	2.75631E-006	0.00000E+000	-1.75990E-001	0.00000E+000	9	...........	1488.69
	825	9.18237	-1.75090E-001	2.77683E-006	0.00000E+000	-1.74990E-001	0.00000E+000	9	...........	1488.69
	826	9.19348	-1.74088E-001	2.75611E-006	0.00000E+000	-1.73989E-001	0.00000E+000	9	...........	1488.69
	827	9.2046	-1.73086E-001	2.78646E-006	0.00000E+000	-1.72989E-001	0.00000E+000	9	...........	1488.69
	828	9.21572	-1.72088E-001	2.78566E-006	0.00000E+000	-1.71989E-001	0.00000E+000	9	...........	1488.69
	829	9.22683	-1.71086E-001	2.79007E-006	0.00000E+000	-1.70989E-001	0.00000E+000	9	...........	1488.69
	830	9.23795	-1.70085E-001	2.79263E-006	0.00000E+000	-1.69988E-001	0.00000E+000	9	...........	1488.69
	831	9.24907	-1.69086E-001	2.81209E-006	0.00000E+000	-1.68988E-001	0.00000E+000	9	...........	1488.69
	832	9.26018	-1.68084E-001	2.80025E-006	0.00000E+000	-1.67988E-001	0.00000E+000	9	...........	1488.69
	833	9.2713	-1.67084E-001	2.81134E-006	0.00000E+000	-1.66988E-001	0.00000E+000	9	...........	1488.69
	834	9.28242	-1.66084E-001	2.82985E-006	0.00000E+000	-1.65987E-001	0.00000E+000	9	...........	1488.69
	835	9.29353	-1.65084E-001	2.82298E-006	0.00000E+000	-1.64987E-001	0.00000E+000	9	...........	1488.69
	836	9.30465	-1.64085E-001	2.83196E-006	0.00000E+000	-1.63987E-001	0.00000E+000	9	...........	1488.69
	837	9.31577	-1.63086E-001	2.83793E-006	0.00000E+000	-1.62987E-001	0.00000E+000	9	...........	1488.69
	838	9.32688	-1.62082E-001	2.84349E-006	0.00000E+000	-1.61986E-001	0.00000E+000	9	...........	1488.69
	839	9.338	-1.61084E-001	2.83587E-006	0.00000E+000	-1.60986E-001	0.00000E+000	9	...........	1488.69
	840	9.34912	-1.60082E-001	2.84575E-006	0.00000E+000	-1.59986E-001	0.00000E+000	9	...........	1488.69
	841	9.36023	-1.59081E-001	2.85247E-006	0.00000E+000	-1.58985E-001	0.00000E+000	9	...........	1488.69
	842	9.37135	-1.58079E-001	2.85348E-006	0.00000E+000	-1.57985E-001	0.00000E+000	9	...........	1488.69
	843	9.38247	-1.57069E-001	2.87264E-006	0.00000E+000	-1.56972E-001	0.00000E+000	9	...........	1488.69
	844	9.39358	-1.56070E-001	2.83833E-006	0.00000E+000	-1.55972E-001	0.00000E+000	9	...........	1488.69
	845	9.4047	-1.55071E-001	2.86692E-006	0.00000E+000	-1.54972E-001	0.00000E+000	9	...........	1488.69
	846	9.41582	-1.54069E-001	2.84480E-006	0.00000E+000	-1.53972E-001	0.00000E+000	9	...........	1488.69
	847	9.42693	-1.53068E-001	2.86010E-006	0.00000E+000	-1.52971E-001	0.00000E+000	9	...........	1488.69
	848	9.43805	-1.52067E-001	2.86135E-006	0.00000E+000	-1.51971E-001	0.00000E+000	9	...........	1488.69
	849	9.44917	-1.51069E-001	2.86441E-006	0.00000E+000	-1.50971E-001	0.00000E+000	9	...........	1488.69
	850	9.46028	-1.50069E-001	2.85729E-006	0.00000E+000	-1.49971E-001	0.00000E+000	9	...........	1488.69
	851	9.4714	-1.49069E-001	2.86426E-006	0.00000E+000	-1.48970E-001	0.00000E+000	9	...........	1488.69
	852	9.48252	-1.48068E-001	2.87685E-006	0.00000E+000	-1.47970E-001	0.00000E+000	9	...........	1488.69
	853	9.49363	-1.47068E-001	2.87113E-006	0.00000E+000	-1.46970E-001	0.00000E+000	9	...........	1488.69
	854	9.5048	-1.46065E-001	2.86948E-006	0.00000E+000	-1.45969E-001	0.00000E+000	9	...........	1488.69
	855	9.5159	-1.45064E-001	2.87801E-006	0.00000E+000	-1.44969E-001	0.00000E+000	9	...........	1488.69
	856	9.527	-1.44066E-001	2.86953E-006	0.00000E+000	-1.43969E-001	0.00000E+000	9	...........	1488.69
	857	9.5381	-1.43065E-001	2.87399E-006	0.00000E+000	-1.42969E-001	0.00000E+000	9	...........	1488.69
	858	9.5492	-1.42068E-001	2.87449E-006	0.00000E+000	-1.41968E-001	0.00000E+000	9	...........	1488.69
	859	9.5603	-1.41065E-001	2.87645E-006	0.00000E+000	-1.40968E-001	0.00000E+000	9	...........	1488.69
	860	9.5715	-1.40066E-001	2.88979E-006	0.00000E+000	-1.39968E-001	0.00000E+000	9	...........	1488.69
	861	9.5826	-1.39063E-001	2.88518E-006	0.00000E+000	-1.38968E-001	0.00000E+000	9	...........	1488.69
	862	9.5937	-1.38063E-001	2.87580E-006	0.00000E+000	-1.37967E-001	0.00000E+000	9	...........	1488.69
	863	9.6048	-1.37063E-001	2.88262E-006	0.00000E+000	-1.36967E-001	0.00000E+000	9	...........	1488.69
	864	9.6159	-1.36063E-001	2.87896E-006	0.00000E+000	-1.35967E-001	0.00000E+000	9	...........	1488.69
	865	9.627	-1.35063E-001	2.88152E-006	0.00000E+000	-1.34967E-001	0.00000E+000	9	...........	1488.69
	866	9.6382	-1.34060E-001	2.88297E-006	0.00000E+000	-1.33966E-001	0.00000E+000	9	...........	1488.69
	867	9.6493	-1.33062E-001	2.87309E-006	0.00000E+000	-1.32966E-001	0.00000E+000	9	...........	1488.69
	868	9.6604	-1.32061E-001	2.88513E-006	0.00000E+000	-1.31966E-001	0.00000E+000	9	...........	1488.69
	869	9.6715	-1.31061E-001	2.87856E-006	0.00000E+000	-1.30965E-001	0.00000E+000	9	...........	1488.69
	870	9.6826	-1.30061E-001	2.88498E-006	0.00000E+000	-1.29965E-001	0.00000E+000	9	...........	1488.69
	871	9.6937	-1.29061E-001	2.88493E-006	0.00000E+000	-1.28965E-001	0.00000E+000	9	...........	1488.69
	872	9.7049	-1.28058E-001	2.88543E-006	0.00000E+000	-1.27965E-001	0.00000E+000	9	...........	1488.69
	873	9.716	-1.27057E-001	2.87540E-006	0.00000E+000	-1.26964E-001	0.00000E+000	9	...........	1488.69
	874	9.7271	-1.26058E-001	2.88874E-006	0.00000E+000	-1.25964E-001	0.00000E+000	9	...........	1488.69
	875	9.7382	-1.25056E-001	2.88533E-006	0.00000E+000	-1.24964E-001	0.00000E+000	9	...........	1488.69
	876	9.7493	-1.24058E-001	2.88498E-006	0.00000E+000	-1.23964E-001	0.00000E+000	9	...........	1488.69
	877	9.7604	-1.23057E-001	2.88769E-006	0.00000E+000	-1.22963E-001	0.00000E+000	9	...........	1488.69
	878	9.7716	-1.22055E-001	2.89421E-006	0.00000E+000	-1.21963E-001	0.00000E+000	9	...........	1488.69
	879	9.7827	-1.21056E-001	2.88814E-006	0.00000E+000	-1.20963E-001	0.00000E+000	9	...........	1488.69
	880	9.7938	-1.20053E-001	2.89150E-006	0.00000E+000	-1.19963E-001	0.00000E+000	9	...........	1488.69
	881	9.8049	-1.19054E-001	2.89195E-006	0.00000E+000	-1.18962E-001	0.00000E+000	9	...........	1488.69
	882	9.816	-1.18053E-001	2.88377E-006	0.00000E+000	-1.17962E-001	0.00000E+000	9	...........	1488.69
	883	9.8271	-1.17054E-001	2.89857E-006	0.00000E+000	-1.16962E-001	0.00000E+000	9	...........	1488.69
	884	9.8383	-1.16052E-001	2.89300E-006	0.00000E+000	-1.15961E-001	0.00000E+000	9	...........	1488.69
	885	9.8494	-1.15053E-001	2.89165E-006	0.00000E+000	-1.14961E-001	0.00000E+000	9	...........	1488.69
	886	9.8605	-1.14051E-001	2.89471E-006	0.00000E+000	-1.13961E-001	0.00000E+000	9	...........	1488.69
	887	9.8716	-1.13050E-001	2.89150E-006	0.00000E+000	-1.12961E-001	0.00000E+000	9	...........	1488.69
	888	9.8827	-1.12052E-001	2.89546E-006	0.00000E+000	-1.11960E-001	0.00000E+000	9	...........	1488.69
	889	9.8938	-1.11051E-001	2.89416E-006	0.00000E+000	-1.10960E-001	0.00000E+000	9	...........	1488.69
	890	9.905	-1.10051E-001	2.89481E-006	0.00000E+000	-1.09960E-001	0.00000E+000	9	...........	1488.69
	891	9.9161	-1.09049E-001	2.90073E-006	0.00000E+000	-1.08960E-001	0.00000E+000	9	...........	1488.69
	892	9.9272	-1.08048E-001	2.89100E-006	0.00000E+000	-1.07959E-001	0.00000E+000	9	...........	1488.69
	893	9.9383	-1.07047E-001	2.89742E-006	0.00000E+000	-1.06959E-001	0.00000E+000	9	...........	1488.69
	894	9.9494	-1.06049E-001	2.89135E-006	0.00000E+000	-1.05959E-001	0.00000E+000	9	...........	1488.69
	895	9.9605	-1.05049E-001	2.89782E-006	0.00000E+000	-1.04958E-001	0.00000E+000	9	...........	1488.69
	896	9.9717	-1.04047E-001	2.90770E-006	0.00000E+000	-1.03958E-001	0.00000E+000	9	...........	1488.69
	897	9.9828	-1.03035E-001	2.92937E-006	0.00000E+000	-1.02945E-001	0.00000E+000	9	...........	1488.69
	898	9.9939	-1.02034E-001	2.88964E-006	0.00000E+000	-1.01945E-001	0.00000E+000	9	...........	1488.69
	899	10.005	-1.01032E-001	2.91588E-006	0.00000E+000	-1.00945E-001	0.00000E+000	9	...........	1488.69
	900	10.0161	-1.00033E-001	2.89110E-006	0.00000E+000	-9.99447E-002	0.00000E+000	9	...........	1488.69
	901	10.0272	-9.90356E-002	2.90675E-006	0.00000E+000	-9.89444E-002	0.00000E+000	9	...........	1488.69
	902	10.0384	-9.80359E-002	2.89782E-006	0.00000E+000	-9.79441E-002	0.00000E+000	9	...........	1488.69
	903	10.0495	-9.70350E-002	2.90128E-006	0.00000E+000	-9.69439E-002	0.00000E+000	9	...........	1488.69
	904	10.0606	-9.60318E-002	2.90183E-006	0.00000E+000	-9.59436E-002	0.00000E+000	9	...........	1488.69
	905	10.0717	-9.50314E-002	2.92059E-006	0.00000E+000	-9.49433E-002	0.00000E+000	9	...........	1488.69
	906	10.0828	-9.40305E-002	2.90830E-006	0.00000E+000	-9.39431E-002	0.00000E+000	9	...........	1488.69
	907	10.0939	-9.30314E-002	2.91252E-006	0.00000E+000	-9.29428E-002	0.00000E+000	9	...........	1488.69
	908	10.1051	-9.20303E-002	2.91773E-006	0.00000E+000	-9.19425E-002	0.00000E+000	9	...........	1488.69
	909	10.1162	-9.10302E-002	2.92280E-006	0.00000E+000	-9.09423E-002	0.00000E+000	9	...........	1488.69
	910	10.1273	-9.00302E-002	2.92285E-006	0.00000E+000	-8.99420E-002	0.00000E+000	9	...........	1488.69
	911	10.1384	-8.90302E-002	2.92380E-006	0.00000E+000	-8.89417E-002	0.00000E+000	9	...........	1488.69
	912	10.1495	-8.80276E-002	2.91678E-006	0.00000E+000	-8.79415E-002	0.00000E+000	9	...........	1488.69
	913	10.1606	-8.70297E-002	2.91177E-006	0.00000E+000	-8.69412E-002	0.00000E+000	9	...........	1488.69
	914	10.1718	-8.60281E-002	2.92089E-006	0.00000E+000	-8.59409E-002	0.00000E+000	9	...........	1488.69
	915	10.1829	-8.50293E-002	2.92370E-006	0.00000E+000	-8.49406E-002	0.00000E+000	9	...........	1488.69
	916	10.194	-8.40278E-002	2.91718E-006	0.00000E+000	-8.39404E-002	0.00000E+000	9	...........	1488.69
	917	10.2051	-8.30272E-002	2.92907E-006	0.00000E+000	-8.29401E-002	0.00000E+000	9	...........	1488.69
	918	10.2162	-8.20292E-002	2.93198E-006	0.00000E+000	-8.19398E-002	0.00000E+000	9	...........	1488.69
	919	10.2273	-8.10281E-002	2.92315E-006	0.00000E+000	-8.09396E-002	0.00000E+000	9	...........	1488.69
	920	10.2385	-8.00293E-002	2.92987E-006	0.00000E+000	-7.99393E-002	0.00000E+000	9	...........	1488.69
	921	10.2496	-7.90272E-002	2.93875E-006	0.00000E+000	-7.89390E-002	0.00000E+000	9	...........	1488.69
	922	10.2607	-7.80281E-002	2.93559E-006	0.00000E+000	-7.79388E-002	0.00000E+000	9	...........	1488.69
	923	10.2718	-7.70267E-002	2.93324E-006	0.00000E+000	-7.69385E-002	0.00000E+000	9	...........	1488.69
	924	10.2829	-7.60280E-002	2.94166E-006	0.00000E+000	-7.59382E-002	0.00000E+000	9	...........	1488.69
	925	10.294	-7.50253E-002	2.94161E-006	0.00000E+000	-7.49380E-002	0.00000E+000	9	...........	1488.69
	926	10.3052	-7.40252E-002	2.94653E-006	0.00000E+000	-7.39377E-002	0.00000E+000	9	...........	1488.69
	927	10.3163	-7.30245E-002	2.93986E-006	0.00000E+000	-7.29374E-002	0.00000E+000	9	...........	1488.69
	928	10.3274	-7.20238E-002	2.94939E-006	0.00000E+000	-7.19372E-002	0.00000E+000	9	...........	1488.69
	929	10.3385	-7.10228E-002	2.95536E-006	0.00000E+000	-7.09369E-002	0.00000E+000	9	...........	1488.69
	930	10.3496	-7.00218E-002	2.95180E-006	0.00000E+000	-6.99366E-002	0.00000E+000	9	...........	1488.69
	931	10.3607	-6.90199E-002	2.95741E-006	0.00000E+000	-6.89364E-002	0.00000E+000	9	...........	1488.69
	932	10.3719	-6.80223E-002	2.95139E-006	0.00000E+000	-6.79361E-002	0.00000E+000	9	...........	1488.69
	933	10.383	-6.70224E-002	2.96027E-006	0.00000E+000	-6.69358E-002	0.00000E+000	9	...........	1488.69
	934	10.3941	-6.60223E-002	2.94763E-006	0.00000E+000	-6.59356E-002	0.00000E+000	9	...........	1488.69
	935	10.4052	-6.50209E-002	2.96740E-006	0.00000E+000	-6.49353E-002	0.00000E+000	9	...........	1488.69
	936	10.4163	-6.40197E-002	2.97306E-006	0.00000E+000	-6.39350E-002	0.00000E+000	9	...........	1488.69
	937	10.4274	-6.30181E-002	2.98174E-006	0.00000E+000	-6.29348E-002	0.00000E+000	9	...........	1488.69
	938	10.4385	-6.20159E-002	2.96785E-006	0.00000E+000	-6.19345E-002	0.00000E+000	9	...........	1488.69
	939	10.4497	-6.10177E-002	2.97402E-006	0.00000E+000	-6.09342E-002	0.00000E+000	9	...........	1488.69
	940	10.4608	-6.00169E-002	2.97367E-006	0.00000E+000	-5.99340E-002	0.00000E+000	9	...........	1488.69
	941	10.4719	-5.90159E-002	2.98927E-006	0.00000E+000	-5.89337E-002	0.00000E+000	9	...........	1488.69
	942	10.483	-5.80176E-002	2.98581E-006	0.00000E+000	-5.79334E-002	0.00000E+000	9	...........	1488.69
	943	10.4941	-5.70172E-002	2.98741E-006	0.00000E+000	-5.69332E-002	0.00000E+000	9	...........	1488.69
	944	10.5052	-5.60141E-002	2.99388E-006	0.00000E+000	-5.59329E-002	0.00000E+000	9	...........	1488.69
	945	10.5164	-5.50140E-002	2.98611E-006	0.00000E+000	-5.49326E-002	0.00000E+000	9	...........	1488.69
	946	10.5275	-5.40139E-002	2.99764E-006	0.00000E+000	-5.39324E-002	0.00000E+000	9	...........	1488.69
	947	10.5386	-5.30149E-002	2.99293E-006	0.00000E+000	-5.29321E-002	0.00000E+000	9	...........	1488.69
	948	10.5497	-5.20129E-002	3.00572E-006	0.00000E+000	-5.19318E-002	0.00000E+000	9	...........	1488.69
	949	10.5608	-5.10128E-002	3.00186E-006	0.00000E+000	-5.09316E-002	0.00000E+000	9	...........	1488.69
	950	10.5719	-5.00101E-002	3.00191E-006	0.00000E+000	-4.99313E-002	0.00000E+000	9	...........	1488.69
	951	10.5831	-4.89967E-002	3.04725E-006	0.00000E+000	-4.89185E-002	0.00000E+000	9	...........	1488.69
	952	10.5942	-4.80013E-002	3.00477E-006	0.00000E+000	-4.79183E-002	0.00000E+000	9	...........	1488.69
	953	10.6053	-4.70003E-002	3.02408E-006	0.00000E+000	-4.69180E-002	0.00000E+000	9	...........	1488.69
	954	10.6164	-4.59995E-002	3.01746E-006	0.00000E+000	-4.59177E-002	0.00000E+000	9	...........	1488.69
	955	10.6275	-4.49954E-002	3.03502E-006	0.00000E+000	-4.49174E-002	0.00000E+000	9	...........	1488.69
	956	10.6386	-4.39965E-002	3.03185E-006	0.00000E+000	-4.39172E-002	0.00000E+000	9	...........	1488.69
	957	10.6498	-4.29938E-002	3.04836E-006	0.00000E+000	-4.29169E-002	0.00000E+000	9	...........	1488.69
	958	10.6609	-4.19941E-002	3.03722E-006	0.00000E+000	-4.19166E-002	0.00000E+000	9	...........	1488.69
	959	10.672	-4.09936E-002	3.03471E-006	0.00000E+000	-4.09164E-002	0.00000E+000	9	...........	1488.69
	960	10.6831	-3.99942E-002	3.05764E-006	0.00000E+000	-3.99161E-002	0.00000E+000	9	...........	1488.69
	961	10.6942	-3.89934E-002	3.04103E-006	0.00000E+000	-3.89158E-002	0.00000E+000	9	...........	1488.69
	962	10.7053	-3.79933E-002	3.04891E-006	0.00000E+000	-3.79156E-002	0.00000E+000	9	...........	1488.69
	963	10.7165	-3.69915E-002	3.05970E-006	0.00000E+000	-3.69153E-002	0.00000E+000	9	...........	1488.69
	964	10.7276	-3.59904E-002	3.05633E-006	0.00000E+000	-3.59150E-002	0.00000E+000	9	...........	1488.69
	965	10.7387	-3.49943E-002	3.05648E-006	0.00000E+000	-3.49148E-002	0.00000E+000	9	...........	1488.69
	966	10.7498	-3.39930E-002	3.06807E-006	0.00000E+000	-3.39145E-002	0.00000E+000	9	...........	1488.69
	967	10.7609	-3.29913E-002	3.06476E-006	0.00000E+000	-3.29142E-002	0.00000E+000	9	...........	1488.69
	968	10.772	-3.19901E-002	3.05970E-006	0.00000E+000	-3.19140E-002	0.00000E+000	9	...........	1488.69
	969	10.7832	-3.09894E-002	3.08287E-006	0.00000E+000	-3.09137E-002	0.00000E+000	9	...........	1488.69
	970	10.7943	-2.99868E-002	3.06592E-006	0.00000E+000	-2.99134E-002	0.00000E+000	9	...........	1488.69
	971	10.8054	-2.89887E-002	3.09446E-006	0.00000E+000	-2.89132E-002	0.00000E+000	9	...........	1488.69
	972	10.8165	-2.79874E-002	3.08076E-006	0.00000E+000	-2.79129E-002	0.00000E+000	9	...........	1488.69
	973	10.8276	-2.69862E-002	3.10906E-006	0.00000E+000	-2.69126E-002	0.00000E+000	9	...........	1488.69
	974	10.8387	-2.59847E-002	3.10238E-006	0.00000E+000	-2.59124E-002	0.00000E+000	9	...........	1488.69
	975	10.8499	-2.49844E-002	3.10795E-006	0.00000E+000	-2.49121E-002	0.00000E+000	9	...........	1488.69
	976	10.861	-2.39854E-002	3.11778E-006	0.00000E+000	-2.39118E-002	0.00000E+000	9	...........	1488.69
	977	10.8721	-2.29826E-002	3.12240E-006	0.00000E+000	-2.29116E-002	0.00000E+000	9	...........	1488.69
	978	10.8832	-2.19835E-002	3.13920E-006	0.00000E+000	-2.19113E-002	0.00000E+000	9	...........	1488.69
	979	10.8943	-2.09838E-002	3.13053E-006	0.00000E+000	-2.09110E-002	0.00000E+000	9	...........	1488.69
	980	10.9054	-1.99817E-002	3.13950E-006	0.00000E+000	-1.99108E-002	0.00000E+000	9	...........	1488.69
	981	10.9166	-1.89803E-002	3.16413E-006	0.00000E+000	-1.89105E-002	0.00000E+000	9	...........	1488.69
	982	10.9277	-1.79779E-002	3.15967E-006	0.00000E+000	-1.79102E-002	0.00000E+000	9	...........	1488.69
	983	10.9388	-1.69775E-002	3.16012E-006	0.00000E+000	-1.69100E-002	0.00000E+000	9	...........	1488.69
	984	10.9499	-1.59803E-002	3.16920E-006	0.00000E+000	-1.59097E-002	0.00000E+000	9	...........	1488.69
	985	10.961	-1.49779E-002	3.16559E-006	0.00000E+000	-1.49094E-002	0.00000E+000	9	...........	1488.69
	986	10.9721	-1.39763E-002	3.17492E-006	0.00000E+000	-1.39092E-002	0.00000E+000	9	...........	1488.69
	987	10.9833	-1.29764E-002	3.18741E-006	0.00000E+000	-1.29089E-002	0.00000E+000	9	...........	1488.69
	988	10.9944	-1.19766E-002	3.18320E-006	0.00000E+000	-1.19086E-002	0.00000E+000	9	...........	1488.69
	989	11.0055	-1.09756E-002	3.19694E-006	0.00000E+000	-1.09084E-002	0.00000E+000	9	...........	1488.69
	990	11.0166	-9.97469E-003	3.19809E-006	0.00000E+000	-9.90810E-003	0.00000E+000	9	...........	1488.69
	991	11.0277	-8.97313E-003	3.20808E-006	0.00000E+000	-8.90782E-003	0.00000E+000	9	...........	1488.69
	992	11.0388	-7.97223E-003	3.21149E-006	0.00000E+000	-7.90756E-003	0.00000E+000	9	...........	1488.69
	993	11.05	-6.97331E-003	3.21816E-006	0.00000E+000	-6.90729E-003	0.00000E+000	9	...........	1488.69
	994	11.0611	-5.97169E-003	3.22593E-006	0.00000E+000	-5.90702E-003	0.00000E+000	9	...........	1488.69
	995	11.0722	-4.96939E-003	3.21871E-006	0.00000E+000	-4.90676E-003	0.00000E+000	9	...........	1488.69
	996	11.0833	-3.97067E-003	3.25297E-006	0.00000E+000	-3.90649E-003	0.00000E+000	9	...........	1488.69
	997	11.0944	-2.97180E-003	3.23742E-006	0.00000E+000	-2.90622E-003	0.00000E+000	9	...........	1488.69
	998	11.1055	-1.97110E-003	3.25839E-006	0.00000E+000	-1.90596E-003	0.00000E+000	9	...........	1488.69
	999	11.1167	-9.71840E-004	3.26386E-006	0.00000E+000	-9.05685E-004	0.00000E+000	9	...........	1488.69
	1000	11.1278	2.98436E-005	3.27815E-006	0.00000E+000	9.45777E-005	0.00000E+000	9	...........	1488.69
	1001	11.1389	-9.30963E-004	-6.02036E-007	0.00000E+000	-9.05685E-004	0.00000E+000	9	...........	1488.69
	1002	11.15	-1.93144E-003	-7.69529E-007	0.00000E+000	-1.90596E-003	0.00000E+000	9	...........	1488.69
	1003	11.1611	-2.93326E-003	-8.80188E-007	0.00000E+000	-2.90622E-003	0.00000E+000	9	...........	1488.69
	1004	11.1722	-3.93278E-003	-9.50366E-007	0.00000E+000	-3.90649E-003	0.00000E+000	9	...........	1488.69
	1005	11.1834	-4.93122E-003	-1.00765E-006	0.00000E+000	-4.90676E-003	0.00000E+000	9	...........	1488.69
	1006	11.1945	-5.93513E-003	-1.05681E-006	0.00000E+000	-5.90702E-003	0.00000E+000	9	...........	1488.69
	1007	11.2056	-6.93516E-003	-1.08490E-006	0.00000E+000	-6.90729E-003	0.00000E+000	9	...........	1488.69
	1008	11.2167	-7.93549E-003	-1.13311E-006	0.00000E+000	-7.90756E-003	0.00000E+000	9	...........	1488.69
	1009	11.2278	-8.93558E-003	-1.14700E-006	0.00000E+000	-8.90782E-003	0.00000E+000	9	...........	1488.69
	1010	11.2389	-9.93633E-003	-1.18618E-006	0.00000E+000	-9.90810E-003	0.00000E+000	9	...........	1488.69
	1011	11.2501	-1.09383E-002	-1.19566E-006	0.00000E+000	-1.09084E-002	0.00000E+000	9	...........	1488.69
	1012	11.2612	-1.19375E-002	-1.23103E-006	0.00000E+000	-1.19086E-002	0.00000E+000	9	...........	1488.69
	1013	11.2723	-1.29381E-002	-1.24452E-006	0.00000E+000	-1.29089E-002	0.00000E+000	9	...........	1488.69
	1014	11.2834	-1.39402E-002	-1.26293E-006	0.00000E+000	-1.39092E-002	0.00000E+000	9	...........	1488.69
	1015	11.2945	-1.49404E-002	-1.28430E-006	0.00000E+000	-1.49094E-002	0.00000E+000	9	...........	1488.69
	1016	11.3056	-1.59436E-002	-1.29895E-006	0.00000E+000	-1.59097E-002	0.00000E+000	9	...........	1488.69
	1017	11.3168	-1.69401E-002	-1.32408E-006	0.00000E+000	-1.69100E-002	0.00000E+000	9	...........	1488.69
	1018	11.3279	-1.79391E-002	-1.33923E-006	0.00000E+000	-1.79102E-002	0.00000E+000	9	...........	1488.69
	1019	11.339	-1.89407E-002	-1.35774E-006	0.00000E+000	-1.89105E-002	0.00000E+000	9	...........	1488.69
	1020	11.3501	-1.99426E-002	-1.37123E-006	0.00000E+000	-1.99108E-002	0.00000E+000	9	...........	1488.69
	1021	11.3612	-2.09456E-002	-1.38297E-006	0.00000E+000	-2.09110E-002	0.00000E+000	9	...........	1488.69
	1022	11.3723	-2.19454E-002	-1.40123E-006	0.00000E+000	-2.19113E-002	0.00000E+000	9	...........	1488.69
	1023	11.3835	-2.29445E-002	-1.39426E-006	0.00000E+000	-2.29116E-002	0.00000E+000	9	...........	1488.69
	1024	11.3946	-2.39449E-002	-1.41432E-006	0.00000E+000	-2.39118E-002	0.00000E+000	9	...........	1488.69
	1025	11.4057	-2.49452E-002	-1.43052E-006	0.00000E+000	-2.49121E-002	0.00000E+000	9	...........	1488.69
	1026	11.4168	-2.59470E-002	-1.43494E-006	0.00000E+000	-2.59124E-002	0.00000E+000	9	...........	1488.69
	1027	11.4279	-2.69476E-002	-1.45355E-006	0.00000E+000	-2.69126E-002	0.00000E+000	9	...........	1488.69
	1028	11.439	-2.79487E-002	-1.46639E-006	0.00000E+000	-2.79129E-002	0.00000E+000	9	...........	1488.69
	1029	11.4502	-2.89487E-002	-1.47146E-006	0.00000E+000	-2.89132E-002	0.00000E+000	9	...........	1488.69
	1030	11.4613	-2.99468E-002	-1.47000E-006	0.00000E+000	-2.99134E-002	0.00000E+000	9	...........	1488.69
	1031	11.4724	-3.09489E-002	-1.49237E-006	0.00000E+000	-3.09137E-002	0.00000E+000	9	...........	1488.69
	1032	11.4835	-3.19505E-002	-1.49789E-006	0.00000E+000	-3.19140E-002	0.00000E+000	9	...........	1488.69
	1033	11.4946	-3.29513E-002	-1.50792E-006	0.00000E+000	-3.29142E-002	0.00000E+000	9	...........	1488.69
	1034	11.5057	-3.39515E-002	-1.51710E-006	0.00000E+000	-3.39145E-002	0.00000E+000	9	...........	1488.69
	1035	11.5169	-3.49534E-002	-1.53597E-006	0.00000E+000	-3.49148E-002	0.00000E+000	9	...........	1488.69
	1036	11.528	-3.59501E-002	-1.53115E-006	0.00000E+000	-3.59150E-002	0.00000E+000	9	...........	1488.69
	1037	11.5391	-3.69529E-002	-1.54660E-006	0.00000E+000	-3.69153E-002	0.00000E+000	9	...........	1488.69
	1038	11.5502	-3.79529E-002	-1.55217E-006	0.00000E+000	-3.79156E-002	0.00000E+000	9	...........	1488.69
	1039	11.5613	-3.89571E-002	-1.56195E-006	0.00000E+000	-3.89158E-002	0.00000E+000	9	...........	1488.69
	1040	11.5724	-3.99584E-002	-1.58051E-006	0.00000E+000	-3.99161E-002	0.00000E+000	9	...........	1488.69
	1041	11.5836	-4.09550E-002	-1.56973E-006	0.00000E+000	-4.09164E-002	0.00000E+000	9	...........	1488.69
	1042	11.5947	-4.19568E-002	-1.58543E-006	0.00000E+000	-4.19166E-002	0.00000E+000	9	...........	1488.69
	1043	11.6058	-4.29576E-002	-1.59701E-006	0.00000E+000	-4.29169E-002	0.00000E+000	9	...........	1488.69
	1044	11.6169	-4.39596E-002	-1.59982E-006	0.00000E+000	-4.39172E-002	0.00000E+000	9	...........	1488.69
	1045	11.628	-4.49569E-002	-1.61221E-006	0.00000E+000	-4.49174E-002	0.00000E+000	9	...........	1488.69
	1046	11.6391	-4.59605E-002	-1.62049E-006	0.00000E+000	-4.59177E-002	0.00000E+000	9	...........	1488.69
	1047	11.6503	-4.69612E-002	-1.62912E-006	0.00000E+000	-4.69180E-002	0.00000E+000	9	...........	1488.69
	1048	11.6614	-4.79623E-002	-1.63072E-006	0.00000E+000	-4.79183E-002	0.00000E+000	9	...........	1488.69
	1049	11.6725	-4.89574E-002	-1.64186E-006	0.00000E+000	-4.89185E-002	0.00000E+000	9	...........	1488.69
	1050	11.6836	-4.99721E-002	-1.67883E-006	0.00000E+000	-4.99313E-002	0.00000E+000	9	...........	1488.69
	1051	11.6947	-5.09751E-002	-1.66990E-006	0.00000E+000	-5.09316E-002	0.00000E+000	9	...........	1488.69
	1052	11.7058	-5.19746E-002	-1.66112E-006	0.00000E+000	-5.19318E-002	0.00000E+000	9	...........	1488.69
	1053	11.717	-5.29752E-002	-1.67487E-006	0.00000E+000	-5.29321E-002	0.00000E+000	9	...........	1488.69
	1054	11.7281	-5.39749E-002	-1.68038E-006	0.00000E+000	-5.39324E-002	0.00000E+000	9	...........	1488.69
	1055	11.7392	-5.49760E-002	-1.69328E-006	0.00000E+000	-5.49326E-002	0.00000E+000	9	...........	1488.69
	1056	11.7503	-5.59753E-002	-1.68971E-006	0.00000E+000	-5.59329E-002	0.00000E+000	9	...........	1488.69
	1057	11.7614	-5.69774E-002	-1.70000E-006	0.00000E+000	-5.69332E-002	0.00000E+000	9	...........	1488.69
	1058	11.7725	-5.79779E-002	-1.71670E-006	0.00000E+000	-5.79334E-002	0.00000E+000	9	...........	1488.69
	1059	11.7837	-5.89793E-002	-1.70486E-006	0.00000E+000	-5.89337E-002	0.00000E+000	9	...........	1488.69
	1060	11.7948	-5.99793E-002	-1.72177E-006	0.00000E+000	-5.99340E-002	0.00000E+000	9	...........	1488.69
	1061	11.8059	-6.09791E-002	-1.72463E-006	0.00000E+000	-6.09342E-002	0.00000E+000	9	...........	1488.69
	1062	11.817	-6.19779E-002	-1.73275E-006	0.00000E+000	-6.19345E-002	0.00000E+000	9	...........	1488.69
	1063	11.8281	-6.29791E-002	-1.73652E-006	0.00000E+000	-6.29348E-002	0.00000E+000	9	...........	1488.69
	1064	11.8392	-6.39802E-002	-1.74856E-006	0.00000E+000	-6.39350E-002	0.00000E+000	9	...........	1488.69
	1065	11.8504	-6.49820E-002	-1.75116E-006	0.00000E+000	-6.49353E-002	0.00000E+000	9	...........	1488.69
	1066	11.8615	-6.59825E-002	-1.75327E-006	0.00000E+000	-6.59356E-002	0.00000E+000	9	...........	1488.69
	1067	11.8726	-6.69833E-002	-1.78347E-006	0.00000E+000	-6.69358E-002	0.00000E+000	9	...........	1488.69
	1068	11.8837	-6.79828E-002	-1.77063E-006	0.00000E+000	-6.79361E-002	0.00000E+000	9	...........	1488.69
	1069	11.8948	-6.89830E-002	-1.78437E-006	0.00000E+000	-6.89364E-002	0.00000E+000	9	...........	1488.69
	1070	11.9059	-6.99851E-002	-1.78638E-006	0.00000E+000	-6.99366E-002	0.00000E+000	9	...........	1488.69
	1071	11.9171	-7.09859E-002	-1.79586E-006	0.00000E+000	-7.09369E-002	0.00000E+000	9	...........	1488.69
	1072	11.9282	-7.19862E-002	-1.80795E-006	0.00000E+000	-7.19372E-002	0.00000E+000	9	...........	1488.69
	1073	11.9393	-7.29859E-002	-1.80800E-006	0.00000E+000	-7.29374E-002	0.00000E+000	9	...........	1488.69
	1074	11.9504	-7.39880E-002	-1.82380E-006	0.00000E+000	-7.39377E-002	0.00000E+000	9	...........	1488.69
	1075	11.9615	-7.49872E-002	-1.81281E-006	0.00000E+000	-7.49380E-002	0.00000E+000	9	...........	1488.69
	1076	11.9727	-7.59886E-002	-1.83739E-006	0.00000E+000	-7.59382E-002	0.00000E+000	9	...........	1488.69
	1077	11.9838	-7.69865E-002	-1.84397E-006	0.00000E+000	-7.69385E-002	0.00000E+000	9	...........	1488.69
	1078	11.9949	-7.79889E-002	-1.84156E-006	0.00000E+000	-7.79388E-002	0.00000E+000	9	...........	1488.69
	1079	12.006	-7.89884E-002	-1.85555E-006	0.00000E+000	-7.89390E-002	0.00000E+000	9	...........	1488.69
	1080	12.0171	-7.99900E-002	-1.85972E-006	0.00000E+000	-7.99393E-002	0.00000E+000	9	...........	1488.69
	1081	12.0282	-8.09892E-002	-1.84913E-006	0.00000E+000	-8.09396E-002	0.00000E+000	9	...........	1488.69
	1082	12.0394	-8.19881E-002	-1.87938E-006	0.00000E+000	-8.19398E-002	0.00000E+000	9	...........	1488.69
	1083	12.0505	-8.29865E-002	-1.86769E-006	0.00000E+000	-8.29401E-002	0.00000E+000	9	...........	1488.69
	1084	12.0616	-8.39879E-002	-1.88650E-006	0.00000E+000	-8.39404E-002	0.00000E+000	9	...........	1488.69
	1085	12.0727	-8.49901E-002	-1.89383E-006	0.00000E+000	-8.49406E-002	0.00000E+000	9	...........	1488.69
	1086	12.0838	-8.59883E-002	-1.88901E-006	0.00000E+000	-8.59409E-002	0.00000E+000	9	...........	1488.69
	1087	12.0949	-8.69900E-002	-1.90481E-006	0.00000E+000	-8.69412E-002	0.00000E+000	9	...........	1488.69
	1088	12.1061	-8.79898E-002	-1.90326E-006	0.00000E+000	-8.79415E-002	0.00000E+000	9	...........	1488.69
	1089	12.1172	-8.89924E-002	-1.91324E-006	0.00000E+000	-8.89417E-002	0.00000E+000	9	...........	1488.69
	1090	12.1283	-8.99919E-002	-1.92097E-006	0.00000E+000	-8.99420E-002	0.00000E+000	9	...........	1488.69
	1091	12.1394	-9.09937E-002	-1.92914E-006	0.00000E+000	-9.09423E-002	0.00000E+000	9	...........	1488.69
	1092	12.1505	-9.19897E-002	-1.91961E-006	0.00000E+000	-9.19425E-002	0.00000E+000	9	...........	1488.69
	1093	12.1616	-9.29919E-002	-1.93551E-006	0.00000E+000	-9.29428E-002	0.00000E+000	9	...........	1488.69
	1094	12.1728	-9.39925E-002	-1.95101E-006	0.00000E+000	-9.39431E-002	0.00000E+000	9	...........	1488.69
	1095	12.1839	-9.49909E-002	-1.94785E-006	0.00000E+000	-9.49433E-002	0.00000E+000	9	...........	1488.69
	1096	12.195	-9.59924E-002	-1.96024E-006	0.00000E+000	-9.59436E-002	0.00000E+000	9	...........	1488.69
	1097	12.2061	-9.69973E-002	-1.96777E-006	0.00000E+000	-9.69439E-002	0.00000E+000	9	...........	1488.69
	1098	12.2172	-9.79966E-002	-1.97639E-006	0.00000E+000	-9.79441E-002	0.00000E+000	9	...........	1488.69
	1099	12.2283	-9.89973E-002	-1.97925E-006	0.00000E+000	-9.89444E-002	0.00000E+000	9	...........	1488.69
	1100	12.2395	-9.99953E-002	-1.99430E-006	0.00000E+000	-9.99447E-002	0.00000E+000	9	...........	1488.69
	1101	12.2506	-1.00995E-001	-1.97981E-006	0.00000E+000	-1.00945E-001	0.00000E+000	9	...........	1488.69
	1102	12.2617	-1.01996E-001	-2.00454E-006	0.00000E+000	-1.01945E-001	0.00000E+000	9	...........	1488.69
	1103	12.2728	-1.02998E-001	-2.02741E-006	0.00000E+000	-1.02945E-001	0.00000E+000	9	...........	1488.69
	1104	12.2839	-1.04009E-001	-2.03950E-006	0.00000E+000	-1.03958E-001	0.00000E+000	9	...........	1488.69
	1105	12.295	-1.05011E-001	-2.02676E-006	0.00000E+000	-1.04958E-001	0.00000E+000	9	...........	1488.69
	1106	12.3062	-1.06012E-001	-2.02746E-006	0.00000E+000	-1.05959E-001	0.00000E+000	9	...........	1488.69
	1107	12.3173	-1.07010E-001	-2.03679E-006	0.00000E+000	-1.06959E-001	0.00000E+000	9	...........	1488.69
	1108	12.3284	-1.08009E-001	-2.04085E-006	0.00000E+000	-1.07959E-001	0.00000E+000	9	...........	1488.69
	1109	12.3395	-1.09010E-001	-2.05987E-006	0.00000E+000	-1.08960E-001	0.00000E+000	9	...........	1488.69
	1110	12.3506	-1.10011E-001	-2.05977E-006	0.00000E+000	-1.09960E-001	0.00000E+000	9	...........	1488.69
	1111	12.3617	-1.11013E-001	-2.07456E-006	0.00000E+000	-1.10960E-001	0.00000E+000	9	...........	1488.69
	1112	12.3729	-1.12013E-001	-2.07471E-006	0.00000E+000	-1.11960E-001	0.00000E+000	9	...........	1488.69
	1113	12.384	-1.13009E-001	-2.07496E-006	0.00000E+000	-1.12961E-001	0.00000E+000	9	...........	1488.69
	1114	12.3951	-1.14011E-001	-2.09954E-006	0.00000E+000	-1.13961E-001	0.00000E+000	9	...........	1488.69
	1115	12.4062	-1.15012E-001	-2.09448E-006	0.00000E+000	-1.14961E-001	0.00000E+000	9	...........	1488.69
	1116	12.4173	-1.16014E-001	-2.10968E-006	0.00000E+000	-1.15961E-001	0.00000E+000	9	...........	1488.69
	1117	12.4284	-1.17015E-001	-2.11394E-006	0.00000E+000	-1.16962E-001	0.00000E+000	9	...........	1488.69
	1118	12.4396	-1.18014E-001	-2.12247E-006	0.00000E+000	-1.17962E-001	0.00000E+000	9	...........	1488.69
	1119	12.4507	-1.19015E-001	-2.11861E-006	0.00000E+000	-1.18962E-001	0.00000E+000	9	...........	1488.69
	1120	12.4618	-1.20012E-001	-2.13391E-006	0.00000E+000	-1.19963E-001	0.00000E+000	9	...........	1488.69
	1121	12.4729	-1.21015E-001	-2.15191E-006	0.00000E+000	-1.20963E-001	0.00000E+000	9	...........	1488.69
	1122	12.484	-1.22016E-001	-2.14429E-006	0.00000E+000	-1.21963E-001	0.00000E+000	9	...........	1488.69
	1123	12.4951	-1.23015E-001	-2.16611E-006	0.00000E+000	-1.22963E-001	0.00000E+000	9	...........	1488.69
	1124	12.5063	-1.24018E-001	-2.16897E-006	0.00000E+000	-1.23964E-001	0.00000E+000	9	...........	1488.69
	1125	12.5174	-1.25018E-001	-2.18462E-006	0.00000E+000	-1.24964E-001	0.00000E+000	9	...........	1488.69
	1126	12.5285	-1.26019E-001	-2.18547E-006	0.00000E+000	-1.25964E-001	0.00000E+000	9	...........	1488.90
	1127	12.5396	-1.27018E-001	-2.20489E-006	0.00000E+000	-1.26964E-001	0.00000E+000	9	...........	1488.97
	1128	12.5507	-1.28019E-001	-2.19992E-006	0.00000E+000	-1.27965E-001	0.00000E+000	9	...........	1488.97
	1129	12.5618	-1.29020E-001	-2.21146E-006	0.00000E+000	-1.28965E-001	0.00000E+000	9	...........	1488.97
	1130	12.573	-1.30022E-001	-2.22340E-006	0.00000E+000	-1.29965E-001	0.00000E+000	9	...........	1488.97
	1131	12.5841	-1.31021E-001	-2.23408E-006	0.00000E+000	-1.30965E-001	0.00000E+000	9	...........	1488.97
	1132	12.5952	-1.32021E-001	-2.22651E-006	0.00000E+000	-1.31966E-001	0.00000E+000	9	...........	1488.97
	1133	12.6063	-1.33021E-001	-2.24346E-006	0.00000E+000	-1.32966E-001	0.00000E+000	9	...........	1488.97
	1134	12.6174	-1.34023E-001	-2.25670E-006	0.00000E+000	-1.33966E-001	0.00000E+000	9	...........	1488.97
	1135	12.6285	-1.35023E-001	-2.25560E-006	0.00000E+000	-1.34967E-001	0.00000E+000	9	...........	1488.97
	1136	12.6397	-1.36023E-001	-2.27737E-006	0.00000E+000	-1.35967E-001	0.00000E+000	9	...........	1488.97
	1137	12.6508	-1.37022E-001	-2.27055E-006	0.00000E+000	-1.36967E-001	0.00000E+000	9	...........	1488.97
	1138	12.6619	-1.38024E-001	-2.29051E-006	0.00000E+000	-1.37967E-001	0.00000E+000	9	...........	1488.97
	1139	12.673	-1.39025E-001	-2.30657E-006	0.00000E+000	-1.38968E-001	0.00000E+000	9	...........	1488.97
	1140	12.6841	-1.40025E-001	-2.30265E-006	0.00000E+000	-1.39968E-001	0.00000E+000	9	...........	1488.97
	1141	12.6952	-1.41025E-001	-2.31233E-006	0.00000E+000	-1.40968E-001	0.00000E+000	9	...........	1488.97
	1142	12.7064	-1.42026E-001	-2.33195E-006	0.00000E+000	-1.41968E-001	0.00000E+000	9	...........	1488.97
	1143	12.7175	-1.43026E-001	-2.33320E-006	0.00000E+000	-1.42969E-001	0.00000E+000	9	...........	1488.97
	1144	12.7286	-1.44027E-001	-2.35131E-006	0.00000E+000	-1.43969E-001	0.00000E+000	9	...........	1488.97
	1145	12.7397	-1.45024E-001	-2.35362E-006	0.00000E+000	-1.44969E-001	0.00000E+000	9	...........	1488.97
	1146	12.7508	-1.46027E-001	-2.36942E-006	0.00000E+000	-1.45969E-001	0.00000E+000	9	...........	1488.97
	1147	12.7619	-1.47028E-001	-2.37699E-006	0.00000E+000	-1.46970E-001	0.00000E+000	9	...........	1488.97
	1148	12.7731	-1.48029E-001	-2.39014E-006	0.00000E+000	-1.47970E-001	0.00000E+000	9	...........	1488.97
	1149	12.7842	-1.49029E-001	-2.39380E-006	0.00000E+000	-1.48970E-001	0.00000E+000	9	...........	1488.97
	1150	12.7953	-1.50030E-001	-2.40850E-006	0.00000E+000	-1.49971E-001	0.00000E+000	9	...........	1488.97
	1151	12.8064	-1.51028E-001	-2.41161E-006	0.00000E+000	-1.50971E-001	0.00000E+000	9	...........	1488.97
	1152	12.8175	-1.52028E-001	-2.41788E-006	0.00000E+000	-1.51971E-001	0.00000E+000	9	...........	1488.97
	1153	12.8286	-1.53030E-001	-2.44135E-006	0.00000E+000	-1.52971E-001	0.00000E+000	9	...........	1488.97
	1154	12.8398	-1.54029E-001	-2.45144E-006	0.00000E+000	-1.53972E-001	0.00000E+000	9	...........	1488.97
	1155	12.8509	-1.55032E-001	-2.45715E-006	0.00000E+000	-1.54972E-001	0.00000E+000	9	...........	1488.97
	1156	12.862	-1.56031E-001	-2.46463E-006	0.00000E+000	-1.55972E-001	0.00000E+000	9	...........	1488.97
	1157	12.8731	-1.57031E-001	-2.48284E-006	0.00000E+000	-1.56972E-001	0.00000E+000	9	...........	1488.97
	1158	12.8842	-1.58043E-001	-2.50737E-006	0.00000E+000	-1.57985E-001	0.00000E+000	9	...........	1488.97
	1159	12.8953	-1.59042E-001	-2.51198E-006	0.00000E+000	-1.58985E-001	0.00000E+000	9	...........	1488.97
	1160	12.9065	-1.60043E-001	-2.49949E-006	0.00000E+000	-1.59986E-001	0.00000E+000	9	...........	1488.97
	1161	12.9176	-1.61046E-001	-2.53696E-006	0.00000E+000	-1.60986E-001	0.00000E+000	9	...........	1488.97
	1162	12.9287	-1.62045E-001	-2.53581E-006	0.00000E+000	-1.61986E-001	0.00000E+000	9	...........	1488.97
	1163	12.9398	-1.63047E-001	-2.55507E-006	0.00000E+000	-1.62987E-001	0.00000E+000	9	...........	1488.97
	1164	12.9509	-1.64046E-001	-2.56726E-006	0.00000E+000	-1.63987E-001	0.00000E+000	9	...........	1488.97
	1165	12.962	-1.65045E-001	-2.56751E-006	0.00000E+000	-1.64987E-001	0.00000E+000	9	...........	1488.97
	1166	12.9732	-1.66043E-001	-2.59134E-006	0.00000E+000	-1.65987E-001	0.00000E+000	9	...........	1488.97
	1167	12.9843	-1.67046E-001	-2.60202E-006	0.00000E+000	-1.66988E-001	0.00000E+000	9	...........	1488.97
	1168	12.9954	-1.68046E-001	-2.61136E-006	0.00000E+000	-1.67988E-001	0.00000E+000	9	...........	1488.97
	1169	13.0065	-1.69046E-001	-2.62385E-006	0.00000E+000	-1.68988E-001	0.00000E+000	9	...........	1488.97
	1170	13.0176	-1.70047E-001	-2.64301E-006	0.00000E+000	-1.69988E-001	0.00000E+000	9	...........	1488.97
	1171	13.0287	-1.71045E-001	-2.64286E-006	0.00000E+000	-1.70989E-001	0.00000E+000	9	...........	1488.97
	1172	13.0399	-1.72048E-001	-2.67025E-006	0.00000E+000	-1.71989E-001	0.00000E+000	9	...........	1488.97
	1173	13.051	-1.73047E-001	-2.68504E-006	0.00000E+000	-1.72989E-001	0.00000E+000	9	...........	1488.97
	1174	13.0621	-1.74048E-001	-2.68790E-006	0.00000E+000	-1.73989E-001	0.00000E+000	9	...........	1488.97
	1175	13.0732	-1.75049E-001	-2.71298E-006	0.00000E+000	-1.74990E-001	0.00000E+000	9	...........	1488.97
	1176	13.0843	-1.76051E-001	-2.72297E-006	0.00000E+000	-1.75990E-001	0.00000E+000	9	...........	1488.97
	1177	13.0954	-1.77047E-001	-2.74990E-006	0.00000E+000	-1.76990E-001	0.00000E+000	9	...........	1488.97
	1178	13.1066	-1.78051E-001	-2.75557E-006	0.00000E+000	-1.77991E-001	0.00000E+000	9	...........	1488.97
	1179	13.1177	-1.79051E-001	-2.77423E-006	0.00000E+000	-1.78991E-001	0.00000E+000	9	...........	1488.97
	1180	13.1288	-1.80053E-001	-2.78577E-006	0.00000E+000	-1.79991E-001	0.00000E+000	9	...........	1488.97
	1181	13.1399	-1.81056E-001	-2.80599E-006	0.00000E+000	-1.80991E-001	0.00000E+000	9	...........	1488.97
	1182	13.151	-1.82053E-001	-2.81341E-006	0.00000E+000	-1.81992E-001	0.00000E+000	9	...........	1488.97
	1183	13.1621	-1.83055E-001	-2.83277E-006	0.00000E+000	-1.82992E-001	0.00000E+000	9	...........	1488.97
	1184	13.1733	-1.84054E-001	-2.85264E-006	0.00000E+000	-1.83992E-001	0.00000E+000	9	...........	1488.97
	1185	13.1844	-1.85054E-001	-2.88003E-006	0.00000E+000	-1.84992E-001	0.00000E+000	9	...........	1488.97
	1186	13.1955	-1.86056E-001	-2.90250E-006	0.00000E+000	-1.85993E-001	0.00000E+000	9	...........	1488.97
	1187	13.2066	-1.87055E-001	-2.90626E-006	0.00000E+000	-1.86993E-001	0.00000E+000	9	...........	1488.97
	1188	13.2177	-1.88056E-001	-2.93270E-006	0.00000E+000	-1.87993E-001	0.00000E+000	9	...........	1488.97
	1189	13.2288	-1.89056E-001	-2.94504E-006	0.00000E+000	-1.88993E-001	0.00000E+000	9	...........	1488.97
	1190	13.24	-1.90056E-001	-2.97218E-006	0.00000E+000	-1.89994E-001	0.00000E+000	9	...........	1488.97
	1191	13.2511	-1.91056E-001	-2.98722E-006	0.00000E+000	-1.90994E-001	0.00000E+000	9	...........	1488.97
	1192	13.2622	-1.92056E-001	-3.00318E-006	0.00000E+000	-1.91994E-001	0.00000E+000	9	...........	1488.97
	1193	13.2733	-1.93058E-001	-3.03643E-006	0.00000E+000	-1.92995E-001	0.00000E+000	9	...........	1488.97
	1194	13.2844	-1.94058E-001	-3.04727E-006	0.00000E+000	-1.93995E-001	0.00000E+000	9	...........	1488.97
	1195	13.2955	-1.95060E-001	-3.07777E-006	0.00000E+000	-1.94995E-001	0.00000E+000	9	...........	1488.97
	1196	13.3067	-1.96061E-001	-3.08830E-006	0.00000E+000	-1.95995E-001	0.00000E+000	9	...........	1488.97
	1197	13.3178	-1.97060E-001	-3.12357E-006	0.00000E+000	-1.96996E-001	0.00000E+000	9	...........	1488.97
	1198	13.3289	-1.98063E-001	-3.15020E-006	0.00000E+000	-1.97996E-001	0.00000E+000	9	...........	1488.97
	1199	13.34	-1.99062E-001	-3.16400E-006	0.00000E+000	-1.98996E-001	0.00000E+000	9	...........	1488.97
	1200	13.3511	-2.00062E-001	-3.21155E-006	0.00000E+000	-1.99996E-001	0.00000E+000	9	...........	1488.97
CURVE4	TABLE
	Pt	T	Vf	Im	Vu	Sig	Ach	IERange	Over	Temp
	#	s	V vs. Ref.	A	V	V	V	#	bits	deg C
	1201	13.3622	-2.00081E-001	-7.35669E-007	0.00000E+000	-1.99996E-001	0.00000E+000	9	...........	1488.97
